#Wave		#Intensity
1678.89356	3.75E-7
1677.90527	1849.90391
1676.91699	2739.06383
1675.92871	3824.98741
1674.93945	4582.68272
1673.95019	5163.99864
1672.96094	5721.32188
1671.97168	6487.98497
1670.98242	7097.6212
1669.99219	7278.93175
1669.00195	7815.2003
1668.01172	8298.13438
1667.02148	8879.99864
1666.03027	8544.10216
1665.03906	8903.81505
1664.04883	8933.40782
1663.05664	9052.29942
1662.06543	9530.2213
1661.07324	9943.16954
1660.08203	9702.33165
1659.08984	10183.942
1658.09766	10137.43126
1657.10449	10274.23594
1656.11231	10616.04259
1655.11914	10514.16368
1654.12598	11055.31212
1653.13184	11411.17735
1652.13867	11072.38829
1651.14453	11062.65684
1650.15039	11275.16173
1649.15625	11076.00938
1648.16211	10883.10216
1647.16699	10449.55821
1646.17285	10483.29552
1645.17773	10058.96446
1644.18164	9310.55528
1643.18652	8965.2379
1642.19043	8641.94884
1641.19531	8380.97618
1640.19922	7221.25645
1639.20215	7147.33751
1638.20606	6633.95274
1637.20898	6362.05284
1636.21191	5598.10411
1635.21484	5081.37999
1634.21777	4661.06505
1633.21973	3844.34532
1632.22266	4144.35704
1631.22461	3578.74425
1630.22656	3488.89805
1629.22754	2780.68052
1628.22949	2450.42955
1627.23047	1933.43077
1626.23144	1640.04759
1625.23144	1453.27501
1624.23242	983.11705
1623.23242	1268.20262
1622.23242	923.85313
1621.23242	627.93333
1620.23242	869.15288
1619.23242	-46.51085
1618.23144	209.16713
1617.23047	67.82219
1616.22949	-40.22038
1615.22754	-173.03969
1614.22656	-115.46113
1613.22461	545.95769
1612.22266	-12.23404
1611.2207	183.7597
1610.21777	673.31004
1609.21484	351.93266
1608.21289	507.74901
1607.20898	425.30321
1606.20606	342.69227
1605.20313	-94.0473
1604.19922	78.16534
1603.19531	357.95955
1602.19141	128.52851
1601.18652	258.54449
1600.18262	50.07909
1599.17773	348.86873
1598.17285	201.76349
1597.16699	23.34462
1596.16211	-106.5954
1595.15625	4.90916
1594.15039	48.96001
1593.14453	-159.11989
1592.13867	-95.51238
1591.13184	272.06679
1590.125	-89.95915
1589.11816	39.91158
1588.11133	-17.11917
1587.10449	320.2339
1586.09668	474.89741
1585.08887	1143.98277
1584.08106	1119.59788
1583.07324	1195.55308
1582.06445	1692.4973
1581.05664	2281.73106
1580.04785	2093.81895
1579.03906	2413.83287
1578.0293	2955.5543
1577.02051	3992.16392
1576.01074	3968.51549
1575.00098	4104.27403
1573.99023	4825.58262
1572.98047	5428.66124
1571.96973	5303.02745
1570.95898	5649.48594
1569.94824	5894.53038
1568.9375	6462.83702
1567.92578	6144.42833
1566.91504	6957.3336
1565.90332	7474.67735
1564.89063	7280.90538
1563.87891	7921.19053
1562.86621	8572.68223
1561.85352	9474.60704
1560.84082	9759.28868
1559.82813	10677.11485
1558.81445	12518.15684
1557.80176	13228.25743
1556.78809	14262.96544
1555.77441	15268.39415
1554.75977	15997.0211
1553.74609	16970.567
1552.73144	17018.4127
1551.7168	17379.38536
1550.70117	16911.16075
1549.68652	16772.69786
1548.6709	15680.97911
1547.65527	14818.58555
1546.63965	14386.47227
1545.62402	13186.5836
1544.60742	12650.94981
1543.59082	11186.37755
1542.57422	9913.45079
1541.55762	9837.91368
1540.54004	8479.57384
1539.52344	7847.838
1538.50586	6809.70225
1537.48828	6782.51768
1536.46973	6351.14757
1535.45215	5847.1793
1534.43359	6240.67589
1533.41504	6029.64122
1532.39648	6695.03917
1531.37695	7261.65147
1530.3584	7748.70665
1529.33887	8525.95176
1528.31934	8992.02012
1527.29883	10484.1588
1526.2793	11151.07091
1525.25879	12239.11192
1524.23828	13406.29747
1523.21777	13841.54454
1522.19629	14652.96055
1521.17578	15887.16661
1520.1543	16392.29942
1519.13281	17236.55137
1518.11035	17812.10997
1517.08887	18325.21348
1516.06641	18969.29356
1515.04394	19465.29356
1514.02148	19935.16466
1512.99805	20700.35802
1511.97559	21589.31505
1510.95215	21847.7213
1509.92871	21911.6295
1508.9043	21930.82677
1507.88086	21572.76036
1506.85644	21285.37169
1505.83203	20594.22911
1504.80762	19057.77208
1503.78223	17995.93809
1502.75781	16636.87364
1501.73242	15463.79161
1500.70703	14123.83653
1499.68066	12305.88438
1498.65527	11040.84825
1497.62891	9736.04454
1496.60254	8443.9127
1495.57617	7554.55382
1494.54883	6344.85899
1493.52246	5089.96348
1492.49512	4312.32579
1491.46777	3527.21812
1490.43945	2973.73594
1489.41211	2252.72374
1488.38379	1937.71654
1487.35547	2112.90269
1486.32715	1663.98753
1485.29785	1287.34166
1484.26953	1138.53807
1483.24023	497.99537
1482.21094	478.13017
1481.18066	163.33595
1480.15137	53.5476
1479.12109	-20.87072
1478.09082	-159.85767
1477.06055	157.58015
1476.0293	151.88832
1474.99805	184.14116
1473.96777	29.84569
1472.93555	283.15169
1471.9043	-81.02084
1470.87207	53.49967
1469.84082	-443.96999
1468.80859	13.84105
1467.77539	73.05101
1466.74316	-80.42002
1465.70996	49.19873
1464.67676	413.37913
1463.64356	659.85655
1462.61035	995.58787
1461.57617	1350.76097
1460.54199	1680.99998
1459.50781	2312.55089
1458.47363	2499.33409
1457.43848	3173.96885
1456.40332	3508.67613
1455.36816	4319.15733
1454.33301	5170.10753
1453.29785	5506.38975
1452.26172	5747.32579
1451.22559	6186.12071
1450.18945	6116.81651
1449.15332	6410.0255
1448.11621	6913.10167
1447.0791	6669.20469
1446.04199	6948.00938
1445.00488	6435.6212
1443.96777	6061.9127
1442.92969	6142.69005
1441.8916	5781.39122
1440.85352	5855.22374
1439.81543	5180.34093
1438.77637	4222.05577
1437.73731	4231.08751
1436.69824	3698.71104
1435.65918	3408.12633
1434.61914	2987.09898
1433.5791	2731.47764
1432.54004	2576.86754
1431.49902	2065.76768
1430.45898	1967.26939
1429.41797	1438.04783
1428.37695	1519.91173
1427.33594	1369.77379
1426.29492	1579.04783
1425.25293	1197.88927
1424.21094	1164.25633
1423.16894	1223.79259
1422.12695	1057.87645
1421.08496	1305.63731
1420.04199	1173.72948
1418.99902	931.67662
1417.95606	721.94633
1416.91211	682.66435
1415.86914	533.81077
1414.82519	796.67534
1413.78125	531.71928
1412.73731	398.3509
1411.69238	159.01558
1410.64746	445.21422
1409.60254	174.81726
1408.55762	50.7892
1407.51172	101.9209
1406.4668	-37.2579
1405.4209	110.39982
1404.375	22.35375
1403.32813	-184.32186
1402.28223	-204.20838
1401.23535	-395.19432
1400.18848	343.54616
1399.14063	171.27749
1398.09375	253.67941
1397.0459	-93.09247
1395.99805	299.60536
1394.95019	142.51954
1393.90137	568.41667
1392.85352	692.244
1391.80469	698.71672
1390.75586	591.63072
1389.70606	1325.06114
1388.65723	1115.34312
1387.60742	940.62218
1386.55762	1374.07872
1385.50684	1366.97215
1384.45703	1818.57689
1383.40625	1271.18223
1382.35547	1926.96043
1381.30469	1851.12205
1380.25293	1941.52464
1379.20117	2190.23009
1378.14941	2118.34556
1377.09766	2548.71202
1376.0459	2601.00548
1374.99316	2609.37047
1373.94043	2452.73961
1372.88769	2584.77965
1371.83496	3098.765
1370.78125	3300.90123
1369.72754	3832.32799
1368.67383	4061.09117
1367.62012	4351.86046
1366.56641	5407.03966
1365.51172	6131.59093
1364.45703	6662.20909
1363.40234	6948.0294
1362.34668	6524.59239
1361.29199	6866.8751
1360.23633	6533.03526
1359.17969	6278.23009
1358.12402	5915.15538
1357.06738	5434.66612
1356.01172	5111.88048
1354.95508	4434.41514
1353.89746	4372.86046
1352.84082	4012.23765
1351.7832	3729.13707
1350.72559	4000.0775
1349.66797	3590.17344
1348.60938	3847.69493
1347.55078	3485.6461
1346.49219	3385.39537
1345.43359	2813.34898
1344.375	2536.06065
1343.31543	2563.04527
1342.25586	2955.56676
1341.19629	2385.8629
1340.13672	2704.85753
1339.07617	2347.47447
1338.01563	2084.40367
1336.95508	2529.24522
1335.89453	2895.57481
1334.83301	2951.99083
1333.77148	2389.66343
1332.70996	3491.00816
1331.64844	4249.0255
1330.58594	4086.87242
1329.52441	4700.58507
1328.46191	4942.74376
1327.39941	5442.74864
1326.33594	6599.25303
1325.27246	6717.70567
1324.20898	6590.51182
1323.14551	7324.27354
1322.08203	8432.21348
1321.01758	8895.02208
1319.95313	9049.45079
1318.88867	9576.04844
1317.82422	10376.66856
1316.75879	11108.62852
1315.69336	11418.15196
1314.62793	11804.75938
1313.5625	12773.64415
1312.49609	13274.45469
1311.43066	13447.01915
1310.36426	13681.21251
1309.29688	13081.19786
1308.23047	12572.84727
1307.16309	12489.23497
1306.0957	11864.85118
1305.02832	10265.35509
1303.95996	9712.22813
1302.89258	9213.32872
1301.82422	8718.27989
1300.75586	8325.19786
1299.68652	7492.6754
1298.61816	7574.50401
1297.54883	6406.44493
1296.47949	6240.10899
1295.40918	5956.97716
1294.33984	5934.31944
1293.26953	5232.92686
1292.19922	5002.03721
1291.12793	4809.09825
1290.05762	4942.57042
1288.98633	4036.28843
1287.91504	3797.10362
1286.84375	3494.92491
1285.77148	3500.96422
1284.69922	3470.89171
1283.62695	2888.62218
1282.55469	3276.02183
1281.48144	3191.67491
1280.40918	3082.73179
1279.33594	3132.32261
1278.26172	3074.45689
1277.18848	3560.08507
1276.11426	4425.82969
1275.04004	4116.18956
1273.96582	4789.85313
1272.8916	4920.94737
1271.81641	5362.08067
1270.74121	5860.48399
1269.66602	6270.50889
1268.58984	6091.94639
1267.51465	6597.63243
1266.43848	7456.10606
1265.36231	7690.70323
1264.28516	7754.9713
1263.20898	7572.17589
1262.13184	7783.35801
1261.05469	8296.80821
1259.97656	8745.2545
1258.89941	9008.64024
1257.82129	9447.60801
1256.74316	9281.62071
1255.66504	8973.67149
1254.58594	9786.33848
1253.50684	9858.00157
1252.42773	9473.50352
1251.34863	9326.02598
1250.26856	9294.11778
1249.18945	9559.87462
1248.10938	8754.51426
1247.02832	8619.72032
1245.94824	8583.57188
1244.86719	8981.99669
1243.78613	8227.00157
1242.70508	7983.36046
1241.62305	7591.21348
1240.54102	7251.6212
1239.45898	7081.85557
1238.37695	6703.88292
1237.29492	6310.43663
1236.21191	6205.7628
1235.12891	5554.01915
1234.0459	5433.03966
1232.96191	4791.72813
1231.87891	4820.02257
1230.79492	4682.12364
1229.70996	4458.76573
1228.62598	4193.03184
1227.54102	3486.03184
1226.45606	3729.88121
1225.37109	3316.81334
1224.28613	2833.07725
1223.20019	2815.24473
1222.11426	2609.28233
1221.02832	2404.14268
1219.94238	1963.12327
1218.85547	1776.59312
1217.76856	1600.48839
1216.68164	1333.98143
1215.59375	676.0988
1214.50684	1063.74412
1213.41894	858.10234
1212.33106	624.07988
1211.24219	433.0005
1210.1543	-27.69834
1209.06543	-126.40978
1207.97656	166.75892
1206.88672	119.84286
1205.79785	136.44743
1204.70801	614.03782
1203.61816	579.84562
1202.52734	702.33555
1201.43652	472.63154
1200.34668	874.43809
1199.25488	870.05833
1198.16406	734.02373
1197.07227	871.88164
1195.98144	332.60234
1194.88867	271.70994
1193.79688	481.019
1192.7041	76.73764
1191.61231	325.7578
1190.51856	-79.49656
1189.42578	13.3077
1188.33203	310.2812
1187.23828	141.18005
1186.14453	114.36145
1185.05078	532.3784
1183.95606	897.86424
1182.86133	1071.96361
1181.7666	871.98924
1180.67188	738.98112
1179.57617	863.08653
1178.48047	809.90977
1177.38477	631.24254
1176.28906	369.16633
1175.19238	112.12389
1174.0957	335.69475
1172.99902	197.86084
1171.90234	370.67506
1170.80469	-45.9999
1169.70703	-70.11647
1168.60938	-26.30726
1167.51172	-450.08696
1166.41309	-276.91521
1165.31445	84.70822
1164.21582	314.53624
1163.11719	512.0569
1162.01758	796.29283
1160.91797	1154.62681
1159.81836	1573.96287
1158.71777	1821.20482
1157.61816	1723.43101
1156.51758	2022.88804
1155.41699	2337.19493
1154.31543	2148.25279
1153.21387	2464.44249
1152.11231	3162.21983
1151.01074	3207.92442
1149.90918	2825.11485
1148.80664	3148.18175
1147.7041	3591.8983
1146.60156	4360.23204
1145.49805	4617.78966
1144.39551	4458.40831
1143.29199	4332.13145
1142.1875	4599.6046
1141.08398	5308.04942
1139.97949	5201.32335
1138.875	5272.98204
1137.77051	5545.44298
1136.66504	5595.00303
1135.56055	6228.21348
1134.45508	6684.92979
1133.34863	6744.84923
1132.24316	7021.91563
1131.13672	7258.94688
1130.03027	7774.06016
1128.92383	7708.47569
1127.81641	7955.35264
1126.70898	8215.05626
1125.60156	7843.72862
1124.49414	7790.38194
1123.38574	8069.47716
1122.27832	7515.71104
1121.16894	7527.02794
1120.06055	7065.05675
1118.95117	6955.64952
1117.84277	7121.0543
1116.73242	6841.65684
1115.62305	6550.1168
1114.51269	6198.60801
1113.40332	5291.73253
1112.29199	4895.9044
1111.18164	5037.84483
1110.07031	5506.33848
1108.95898	5454.99571
1107.84766	5497.99083
1106.73633	5468.15587
1105.62402	5646.87169
1104.51172	6653.8253
1103.39941	6971.27061
1102.28613	8003.30626
1101.17383	8025.66368
1100.06055	8606.72911
1098.94629	8767.2711
1097.83301	8658.99669
1096.71875	8545.35801
1095.60449	8538.92051
1094.49023	8219.33848
1093.375	7833.97178
1092.25977	7224.85704
1091.14453	7220.18907
1090.0293	6441.82823
1088.91309	6405.58458
1087.79785	5786.22813
1086.68164	5409.817
1085.56445	5734.20128
1084.44824	5824.15684
1083.33106	6021.21397
1082.21289	5590.75499
1081.0957	5904.26231
1079.97754	5932.73253
1078.85938	5713.11094
1077.74121	5487.18077
1076.62305	5057.11583
1075.50391	4814.51036
1074.38477	4776.77354
1073.26563	4617.62559
1072.14551	4675.22276
1071.02637	4207.06358
1069.90625	4603.17637
1068.78516	4399.53087
1067.66504	4100.90123
1066.54394	3810.42296
1065.42285	4418.14024
1064.30078	4175.17589
1063.17969	4501.74327
1062.05762	4930.046
1060.93555	5548.4879
1059.81348	5649.87608
1058.69043	6429.46348
1057.56738	6848.24864
1056.44434	7292.50596
1055.32031	8074.20714
1054.19727	8712.567
1053.07324	9485.47325
1051.94824	10120.15294
1050.82422	10573.25743
1049.69922	11034.77403
1048.57422	11349.24083
1047.44922	10779.64024
1046.32324	10401.77891
1045.19727	10207.24669
1044.07129	9787.68223
1042.94531	9121.98204
1041.81836	8761.25548
1040.69238	8001.48741
1039.56445	7201.45714
1038.4375	6426.04991
1037.30957	6178.78428
1036.18164	5282.02843
1035.05371	4255.4962
1033.92578	4306.63536
1032.79688	3714.18785
1031.66797	3331.08922
1030.53906	3115.87144
1029.40918	2521.15172
1028.2793	2456.94078
1027.14941	2123.80113
1026.01953	1843.04503
1024.88867	1518.84349
1023.75879	1182.87559
1022.62695	1110.13255
1021.49609	1306.18175
1020.36426	1414.10814
1019.23242	956.26713
1018.10059	1021.04552
1016.96875	1166.61864
1015.83594	1302.2744
1014.70313	1303.27012
1013.57031	1630.37364
1012.43652	1421.03636
1011.30273	1820.58323
1010.16895	2338.60826
1009.03516	2807.34508
1007.90039	3854.91759
1006.7666	4507.88829
1005.63086	5656.82481
1004.49609	6403.62364
1003.36035	7709.43907
1002.22461	8304.66466
1001.08887	8397.76622
999.95313	8612.30723
998.81641	7845.34044
997.67969	7232.74132
996.54297	6613.98594
995.40527	5634.95567
994.26758	5409.24766
993.12988	4646.50889
991.99219	3665.73057
990.85352	3146.02769
989.71484	2630.51549
988.57617	2253.93297
987.4375	1418.33104
986.29785	1028.55144
985.1582	662.82194
984.01855	593.91032
982.87793	325.88478
981.7373	175.16507
980.59668	171.68121
979.45605	340.69075
978.31445	59.72263
977.17285	142.96551
976.03125	-85.90285
974.88965	567.87285
973.74707	809.71177
972.60449	1131.82969
971.46191	1814.68333
970.31836	1465.55101
969.17578	2158.61973
968.03223	2464.91881
966.8877	2615.43565
965.74414	3195.88414
964.59961	3078.43565
963.45508	3504.77427
962.30957	3010.12315
961.16406	3517.39146
960.01855	3320.53843
958.87305	3356.17222
957.72754	3675.17271
956.58105	3037.28599
955.43457	3019.26866
954.28809	3446.95323
953.14063	3446.07725
951.99316	3514.39512
950.8457	3703.09752
949.69727	3792.765
948.5498	3793.3773
947.40137	3878.81114
946.25293	4220.44346
945.10352	3982.40074
943.9541	4084.23887
942.80469	4197.5211
941.65527	3800.01353
940.50488	3915.41246
939.35449	3872.7877
938.2041	3427.67808
937.05371	3285.68468
935.90234	2932.33873
934.75098	2844.29551
933.59961	2291.91295
932.44727	1737.57335
931.29492	1509.1577
930.14258	1323.11021
928.99023	981.71837
927.83691	627.92576
926.68359	284.33235
925.53027	305.71785
924.37598	74.37654
923.22266	249.24608
922.06836	-278.65395
920.91309	-365.58379
919.75879	-269.6274
918.60352	-84.61067
917.44824	-93.5174
916.29199	-272.50066
915.13672	-62.56296
913.98047	69.55316
912.82324	296.68153
911.66699	87.48671
910.50977	68.84905
909.35254	202.12462
908.19531	160.21193
907.03711	287.60399
905.87891	780.58104
904.7207	204.0659
903.56152	568.94127
902.40332	109.46856
901.24414	330.13084
900.08398	158.56904
898.9248	80.44807
897.76465	76.98252
896.60449	49.86675
895.44336	-31.97167
894.2832	-263.21977
893.12207	-21.03406
891.95996	174.32304
890.79883	669.50657
889.63672	1309.24754
888.47461	1249.81956
887.31152	1864.96849
886.14941	1974.7567
884.98633	2731.93443
883.82324	3423.50743
882.65918	3899.46324
881.49512	4156.98253
880.33105	5179.04503
879.16699	5172.82042
878.00195	4806.08409
876.83691	5087.64757
875.67188	4766.42442
874.50684	4516.58653
873.34082	3761.14293
872.1748	3468.56114
871.00781	3041.2794
869.8418	2874.4984
868.6748	2183.03819
867.50781	2280.62413
866.33984	2222.37413
865.17285	2311.70982
864.00488	2071.52623
862.83594	2283.20421
861.66797	2502.40074
860.49902	2717.66368
859.33008	3301.98155
858.16016	2732.61241
856.99121	2621.1234
855.82129	2357.41832
854.65039	1862.34544
853.48047	1839.16832
852.30957	1701.35802
851.13867	1661.35399
849.9668	1979.52415
848.7959	2230.82359
847.62402	2318.62608
846.45117	2277.31871
845.2793	2620.44298
844.10645	3069.58946
842.93359	3799.82872
841.75977	3730.70909
840.58691	4387.35411
839.41309	4826.60899
838.23926	4832.84923
837.06445	5394.72569
835.88965	5279.74229
834.71484	5350.96251
833.54004	4900.59337
832.36426	4213.66954
831.18848	4462.86583
830.0127	3771.09508
828.83594	3510.97911
827.65918	3052.40172
826.48242	2391.03502
825.30566	2357.30357
824.12793	2124.44127
822.9502	1987.82957
821.77246	1600.78587
820.59375	1879.60838
819.41602	1472.25792
818.2373	1477.85802
817.05762	1425.49449
815.87793	1536.95531
814.69824	1829.8524
813.51855	1746.17369
812.33887	1598.50181
811.1582	1423.00706
809.97754	1704.53758
808.7959	1914.14061
807.61523	1380.10191
806.43359	1329.92454
805.25098	1060.95347
804.06934	1309.85167
802.88672	755.67137
801.7041	1162.21885
800.52051	820.82786
799.33789	773.71715
798.1543	533.1616
796.96973	408.51884
795.78613	401.90562
794.60156	340.86592
793.41699	24.79351
792.23145	101.3564
791.04688	225.31752
789.86035	161.41994
788.6748	-36.03345
787.48926	-254.33406
786.30273	-71.84075
785.11523	-48.2308
783.92871	-122.98285
782.74121	60.25083
781.55371	520.76567
780.36621	651.03044
779.17773	690.23076
777.98926	1394.89342
776.80078	1853.64281
775.6123	1665.9232
774.42285	1952.91612
773.2334	1801.43956
772.04297	2188.90343
770.85352	2041.13072
769.66309	2309.25621
768.47168	2489.05357
767.28125	2788.39854
766.08984	2836.49473
764.89844	2547.64635
763.70605	2231.35484
762.51465	1973.30858
761.32227	1766.48558
760.12891	1510.16209
758.93652	1452.25572
757.74316	1081.45433
756.5498	748.23155
755.35547	547.7805
754.16211	617.90562
752.9668	648.92973
751.77246	710.66557
750.57715	621.38505
749.38281	784.01188
748.18652	558.0421
746.99121	636.31303
745.79492	633.57432
744.59863	854.25682
743.40137	553.6273
742.20508	439.01909
741.00781	556.68266
739.81055	345.29786
738.6123	144.50642
737.41406	283.9481
736.21582	152.26578
735.0166	-104.09471
733.81836	116.59897
732.61914	-225.05327
731.41895	226.58778
730.21973	171.43646
729.01953	-177.6055
727.81934	-205.38208
726.61816	-122.27941
725.41699	70.49671
724.21582	-303.90721
723.01465	151.36317
721.8125	214.95701
720.61035	593.88945
719.4082	688.66923
718.20508	1494.07445
717.00195	1279.64317
715.79883	1512.93614
714.5957	1788.89366
713.3916	1646.03782
712.1875	2137.29844
710.98242	2315.69346
709.77832	2361.52769
708.57324	2819.51182
707.36719	3260.11583
706.16211	3224.82579
704.95605	3850.046
703.75	3887.73741
702.54297	4579.23839
701.33691	4810.35118
700.12988	5322.35069
698.92188	5791.15489
697.71484	6486.06163
696.50684	7043.20811
695.29785	7832.51475
694.08984	8450.93321
692.88086	9504.56309
691.67188	10338.48399
690.46289	11403.37071
689.25293	12701.89512
688.04297	13786.28477
686.83301	15450.98594
685.62207	17090.82872
684.41113	18852.09044
683.2002	20380.6588
681.98828	22128.08458
680.77637	23885.63536
679.56445	25302.34239
678.35254	26208.32286
677.13965	26841.08262
675.92676	26777.35802
674.71387	25914.86973
673.5	25279.57481
672.28613	24001.98497
671.07227	22649.70567
669.8584	21895.94395
668.64355	21294.55919
667.42871	20583.32286
666.21289	19839.31309
664.99805	19142.80723
663.78223	18883.65684
662.56543	18346.7545
661.34961	18116.83653
660.13281	17380.43028
658.91602	17195.63927
657.69824	16919.38927
656.48047	16602.04552
655.2627	16179.79942
654.04492	16163.75938
652.82617	15760.09923
651.60742	15899.13731
650.38867	15949.37657
649.16895	16237.96251
647.94922	16441.85802
646.72949	17602.12364
645.50879	17882.37364
644.28809	18720.74669
643.06738	20076.83458
641.84668	21020.73497
640.625	22491.58848
639.40332	24008.2877
638.18164	25384.15294
636.95898	27243.21153
635.73633	28536.2877
634.51367	29883.86583
633.29004	30342.67052
632.06641	31175.47911
630.84277	31262.52403
629.61914	31029.32091
628.39453	30501.31114
627.16992	29692.55137
625.94531	28885.90489
624.71973	27598.26427
623.49414	26624.79161
622.26855	25817.64122
621.04199	24849.01427
619.81543	24304.23692
618.58887	23485.17833
617.36133	23330.89512
616.13477	22964.11973
614.90723	23288.59044
613.67871	23172.22911
612.4502	23361.77403
611.22168	22952.2838
609.99316	21807.44786
608.76367	20392.83458
607.53418	19005.83262
606.30469	18046.89122
605.0752	16694.43223
603.84473	16073.92442
602.61426	14921.33262
601.38281	14408.23594
600.15137	13948.33165
598.91992	13195.31212
597.68848	12258.79063
596.45605	11452.18809
595.22363	10991.63438
593.99121	10744.92052
592.75781	10263.70274
591.52441	9678.52012
590.29102	9215.22227
589.05762	8872.18614
587.82324	8472.29259
586.58887	8225.942
585.35352	7848.27061
584.11816	7256.89366
582.88281	6919.27647
581.64746	6587.86973
580.41113	6216.85362
579.1748	5762.59385
577.93848	5276.88096
576.70117	5165.81407
575.46484	4812.088
574.22656	4548.34971
572.98926	4566.62608
571.75098	4643.36973
570.5127	4316.88048
569.27344	3938.54551
568.03516	4274.51573
566.7959	3296.47056
565.55566	2870.50596
564.31641	2488.99473
563.07617	1808.83531
561.83496	1253.3397
560.59473	855.30467
559.35352	834.88664
558.11133	593.45128
556.87012	105.27124
555.62793	48.87534
554.38574	-75.13436
553.14355	-137.78304
551.90039	56.9834
550.65723	-41.31281
549.41309	85.94594