#Wave		#Intensity
1800.529297	5517.806152
1798.058594	5565.182129
1795.587891	5549.416504
1793.115234	5599.140625
1790.642578	5684.082520
1788.169922	5644.130371
1785.697266	5639.428223
1783.222656	5641.771484
1780.746094	5613.935547
1778.269531	5493.600586
1775.792969	5571.380371
1773.316406	5527.508301
1770.837891	5647.427734
1768.357422	5675.874512
1765.878906	5797.685059
1763.398438	5728.699219
1760.916016	5762.111328
1758.435547	5729.291504
1755.951172	5611.243652
1753.468750	5773.994141
1750.984375	5857.464844
1748.498047	5756.516113
1746.013672	5849.957520
1743.527344	5965.373535
1741.039063	5902.522461
1738.550781	5919.772461
1736.062500	6026.057129
1733.574219	5906.229980
1731.083984	5962.457520
1728.591797	5948.677734
1726.099609	5979.875000
1723.607422	6071.991699
1721.115234	5970.302734
1718.621094	5947.548340
1716.126953	6036.595215
1713.630859	6071.706543
1711.134766	6090.834961
1708.636719	6208.676270
1706.140625	6053.290039
1703.640625	6135.191406
1701.142578	6118.407227
1698.642578	6196.254395
1696.140625	6193.399902
1693.640625	6164.666016
1691.138672	6226.504395
1688.634766	6125.152832
1686.130859	6136.243652
1683.626953	6151.303223
1681.121094	6373.091309
1678.615234	6233.062500
1676.109375	6357.343750
1673.601563	6471.619141
1671.093750	6649.360352
1668.583984	6798.212891
1666.074219	6956.896484
1663.564453	7484.449219
1661.052734	8091.007324
1658.541016	9693.402344
1656.027344	12170.831055
1653.513672	15033.122070
1651.000000	16311.104492
1648.484375	15217.135742
1645.968750	12290.793945
1643.453125	9990.560547
1640.935547	8510.735352
1638.417969	7666.650391
1635.898438	7192.795410
1633.378906	6936.643555
1630.859375	6851.563477
1628.337891	6765.546387
1625.816406	6684.516602
1623.292969	6530.491211
1620.769531	6562.072266
1618.246094	6501.890137
1615.720703	6651.800781
1613.195313	6705.002930
1610.669922	6649.757324
1608.142578	6859.586914
1605.613281	6803.340820
1603.085938	7075.031250
1600.556641	7409.558105
1598.025391	7709.437988
1595.494141	7482.801270
1592.962891	7300.558105
1590.429688	7220.677246
1587.896484	7200.801758
1585.363281	7403.989746
1582.828125	7811.375977
1580.292969	8684.972656
1577.755859	10287.458984
1575.218750	11178.422852
1572.681641	10802.209961
1570.142578	10130.013672
1567.603516	9478.812500
1565.062500	8729.001953
1562.521484	7995.322266
1559.980469	7469.770508
1557.437500	7448.898438
1554.894531	7192.087402
1552.349609	7155.650391
1549.804688	7222.950195
1547.259766	7258.907227
1544.712891	7317.332031
1542.166016	7375.720215
1539.619141	7428.208008
1537.070313	7529.511719
1534.519531	7769.439941
1531.970703	7803.206055
1529.417969	7859.399902
1526.867188	7984.839355
1524.314453	8433.087891
1521.761719	9634.884766
1519.207031	11706.529297
1516.652344	13806.151367
1514.095703	14306.639648
1511.539063	13879.568359
1508.982422	12861.713867
1506.423828	11711.119141
1503.865234	10730.545898
1501.306641	9887.735352
1498.746094	8975.414063
1496.185547	8156.981934
1493.623047	7612.159180
1491.060547	7513.646973
1488.496094	7248.124023
1485.931641	7132.302246
1483.367188	6900.060059
1480.800781	6875.634766
1478.234375	6965.701660
1475.667969	7036.314941
1473.099609	7039.015137
1470.531250	7187.102051
1467.960938	7161.651855
1465.390625	7170.119629
1462.818359	6959.728027
1460.246094	6929.526855
1457.673828	7029.026367
1455.099609	6976.567871
1452.525391	7134.021484
1449.951172	7301.046875
1447.375000	7276.581543
1444.796875	7231.837402
1442.220703	7205.473633
1439.642578	7253.484863
1437.062500	7603.642090
1434.482422	7701.686035
1431.902344	7563.286133
1429.320313	7305.367676
1426.738281	7325.306152
1424.154297	7517.776855
1421.570313	7736.146973
1418.986328	7864.790039
1416.400391	7616.798340
1413.814453	7218.767578
1411.226563	7085.657227
1408.638672	6908.367676
1406.050781	6944.721680
1403.460938	6944.512207
1400.871094	7005.823730
1398.279297	7014.242188
1395.687500	7136.976563
1393.095703	7290.367188
1390.501953	7408.138184
1387.908203	7521.036621
1385.312500	7722.139648
1382.716797	8030.549805
1380.119141	8205.478516
1377.521484	8168.442871
1374.923828	8091.178223
1372.324219	8553.333008
1369.724609	9305.397461
1367.125000	11331.356445
1364.523438	13850.910156
1361.919922	14893.440430
1359.318359	12622.758789
1356.712891	10558.116211
1354.109375	9671.543945
1351.503906	8913.578125
1348.896484	8307.027344
1346.291016	8064.736816
1343.681641	7548.570313
1341.074219	7388.747559
1338.464844	7271.961426
1335.853516	7158.107910
1333.242188	7052.905762
1330.630859	7135.571289
1328.017578	7227.714355
1325.404297	7428.410156
1322.789063	7924.234375
1320.173828	8364.527344
1317.558594	9058.687500
1314.941406	9943.677734
1312.324219	11049.761719
1309.705078	10446.284180
1307.085938	9456.259766
1304.466797	8597.997070
1301.845703	8087.992188
1299.224609	7854.688477
1296.601563	7762.052246
1293.978516	7594.485840
1291.353516	7748.698242
1288.728516	8021.389160
1286.103516	8053.039063
1283.476563	7968.062500
1280.849609	7761.828613
1278.220703	7647.622070
1275.591797	7657.559570
1272.962891	7591.742188
1270.332031	7631.977539
1267.701172	7421.430176
1265.068359	7413.447266
1262.435547	7379.935059
1259.800781	7499.591797
1257.166016	7591.765625
1254.531250	7495.869629
1251.894531	7372.642578
1249.257813	7338.244629
1246.619141	7282.157227
1243.980469	7321.407227
1241.341797	7250.264648
1238.701172	7147.102539
1236.058594	7107.165527
1233.417969	7061.598145
1230.775391	7173.393555
1228.130859	7275.700195
1225.486328	7382.648926
1222.839844	7330.458496
1220.195313	7211.491211
1217.546875	7217.705566
1214.900391	7190.061523
1212.250000	7148.332031
1209.601563	7350.030762
1206.951172	7417.255371
1204.298828	7555.815918
1201.648438	7766.583496
1198.994141	7767.908691
1196.341797	7867.754395
1193.685547	8047.268066
1191.031250	8021.306152
1188.375000	8166.909180
1185.718750	8488.601563
1183.060547	8773.553711
1180.400391	9219.413086
1177.742188	9080.766602
1175.082031	8414.321289
1172.419922	7845.602051
1169.757813	7643.905762
1167.095703	7450.750977
1164.431641	7373.629883
1161.767578	7348.887695
1159.101563	7275.581055
1156.435547	7320.925781
1153.767578	7322.361328
1151.101563	7260.328125
1148.431641	7328.957031
1145.761719	7373.290039
1143.091797	7453.027344
1140.419922	7496.358887
1137.748047	7682.236328
1135.076172	7769.249512
1132.402344	7910.220703
1129.726563	8182.369141
1127.052734	8529.730469
1124.375000	8281.420898
1121.699219	7995.132324
1119.019531	7834.545898
1116.341797	7639.667969
1113.662109	7521.106934
1110.982422	7471.360352
1108.300781	7433.715820
1105.617188	7315.328125
1102.935547	7352.925781
1100.251953	7413.692871
1097.566406	7469.782227
1094.880859	7610.207520
1092.193359	7618.926758
1089.507813	7695.279297
1086.818359	7741.014648
1084.128906	7695.045898
1081.439453	7655.584961
1078.750000	7469.932129
1076.058594	7470.344727
1073.365234	7424.514160
1070.671875	7524.788086
1067.978516	7493.754395
1065.283203	7573.613281
1062.587891	7344.918945
1059.890625	7429.388184
1057.193359	7398.418945
1054.494141	7432.985352
1051.794922	7448.156250
1049.095703	7419.050781
1046.394531	7458.183594
1043.693359	7457.660645
1040.990234	7538.212891
1038.287109	7431.744141
1035.582031	7433.988770
1032.876953	7473.968262
1030.169922	7448.590332
1027.462891	7403.910645
1024.755859	7514.664063
1022.046875	7469.069336
1019.337891	7503.454102
1016.626953	7577.318359
1013.916016	7542.764648
1011.203125	7615.648926
1008.490234	7693.074707
1005.777344	7692.460449
1003.062500	7742.292969
1000.347656	7665.555664
997.630859	7587.032227
994.914063	7600.192871
992.195313	7578.533203
989.476563	7610.916504
986.755859	7579.194336
984.035156	7662.803711
981.314453	7592.657227
978.591797	7667.975098
975.867188	7656.384277
973.142578	7679.532227
970.417969	7680.734863
967.691406	7558.622070
964.964844	7542.510254
962.238281	7666.985352
959.509766	7586.967285
956.779297	7655.697754
954.048828	7692.464355
951.318359	7668.123047
948.585938	7713.973145
945.853516	7653.194336
943.119141	7617.044434
940.384766	7586.379883
937.648438	7913.449219
934.912109	7932.752441
932.175781	8064.836914
929.437500	8134.090332
926.697266	8066.939453
923.957031	7989.834473
921.216797	7880.980469
918.474609	7717.704590
915.732422	7712.503906
912.988281	7770.837402
910.244141	7719.348145
907.500000	7712.333984
904.753906	7727.991211
902.005859	7807.993652
899.257813	7693.123047
896.509766	7790.293457
893.759766	7644.710449
891.009766	7654.020508
888.257813	7597.259766
885.505859	7626.479004
882.751953	7679.192871
879.998047	7749.952637
877.242188	7622.731445
874.486328	7715.145996
871.730469	7649.434570
868.972656	7693.922852
866.214844	7745.601563
863.455078	7615.872559
860.693359	7762.257324
857.933594	7767.869629
855.169922	7710.373047
852.408203	7746.636230
849.644531	7579.271484
846.878906	7674.990723
844.113281	7746.338379
841.347656	7722.235840
838.580078	7649.561523
835.810547	7631.798828
833.041016	7686.878418
830.271484	7761.695313
827.500000	7677.415039
824.728516	7652.474609
821.955078	7545.831543
819.181641	7600.842773
816.408203	7636.971191
813.630859	7604.893555
810.855469	7549.517578
808.078125	7641.208984
805.298828	7611.845703
802.521484	7581.604492
799.740234	7573.772949
796.958984	7698.460938
794.177734	7801.584473
791.394531	7673.782227
788.611328	7859.138672
785.826172	7887.885742
783.041016	8003.323730
780.255859	8399.287109
777.466797	9046.915039
774.679688	9507.472656
771.890625	9626.692383
769.099609	9440.606445
766.308594	8722.896484
763.517578	8060.949707
760.724609	7896.056152
757.931641	7647.484863
755.136719	7612.919434
752.341797	7523.149902
749.544922	7538.509766
746.748047	7503.119629
743.949219	7644.834473
741.150391	7552.497070
738.349609	7469.111328
735.548828	7476.456055
732.748047	7509.566895
729.945313	7477.800781
727.140625	7452.270996
724.335938	7510.212891
721.531250	7524.625977
718.724609	7358.914551
715.917969	7350.303711
713.109375	7317.756836
710.300781	7462.507813
707.490234	7507.919434
704.679688	7431.944336
701.867188	7385.239258
699.054688	7342.104980
696.240234	7210.502930
693.425781	7219.645508
690.611328	7224.358887
687.794922	7258.242188
684.976563	7306.242676
682.158203	7226.103516
679.339844	7234.336426
676.519531	7320.258789
673.697266	7245.485840
670.875000	7243.994141
668.052734	7217.805176
665.228516	7207.503906
662.404297	7345.294434
659.578125	7433.647949
656.751953	7301.718262
653.923828	7116.157715
651.095703	7202.734375
648.265625	7173.089355
645.435547	7172.494141
642.603516	7120.890137
639.771484	7312.845703
636.939453	7219.919434
634.105469	7077.853027
631.269531	7043.908203
628.433594	7041.592773
625.595703	7076.141602
622.757813	7139.621582
619.919922	7302.175293
617.080078	8167.853516
614.240234	11226.993164
611.398438	10546.815430
608.554688	8199.209961
605.712891	7297.170898
602.867188	7215.105469
600.021484	7065.708496
597.175781	6936.529785
594.328125	6900.136719
591.480469	6841.035645
588.630859	6794.207520
585.781250	6731.683105
582.931641	6847.370117
580.078125	6836.379883
577.226563	6826.268555
574.373047	6895.562500
571.517578	6852.290527
568.662109	6947.686035
565.804688	6760.599121
562.947266	6779.278809
560.089844	6767.456543
557.230469	6771.315430
554.369141	6774.300293
551.507813	6669.374023
548.646484	6614.972656
