#Wave		#Intensity
1800.60156	1.25E-5
1798.94824	812.34338
1797.2959	957.53618
1795.6416	739.31119
1793.98828	455.47546
1792.33398	1584.93116
1790.67871	545.47028
1789.02344	960.61902
1787.36816	283.9171
1785.71191	211.59816
1784.05566	145.82429
1782.39844	841.84308
1780.74121	1074.73809
1779.08398	706.03673
1777.42578	824.97647
1775.76758	1131.10525
1774.1084	22.04999
1772.44922	353.9022
1770.78906	434.13338
1769.12891	1129.25535
1767.46875	553.33862
1765.80762	779.85738
1764.14551	706.74856
1762.48438	356.93224
1760.82129	666.7385
1759.15918	973.29019
1757.49609	1287.75335
1755.83203	558.70883
1754.16797	893.32067
1752.50391	518.0513
1750.83887	-259.9599
1749.17383	1598.9787
1747.50879	1417.54362
1745.84277	179.9237
1744.17578	729.67559
1742.50879	600.83404
1740.8418	406.27197
1739.17383	369.96923
1737.50586	301.65168
1735.83691	1510.81022
1734.16797	1258.94651
1732.49902	1214.02067
1730.8291	417.76031
1729.15918	1095.89311
1727.48828	1149.5059
1725.81738	1704.18798
1724.14551	700.04384
1722.47363	469.14546
1720.80078	571.61148
1719.12891	1026.06183
1717.45508	548.39804
1715.78125	973.28241
1714.10742	1612.14117
1712.43359	1494.55297
1710.75781	1033.46223
1709.08301	563.89438
1707.40723	594.60043
1705.73144	1296.16949
1704.05469	596.21562
1702.37695	537.41183
1700.70019	622.24472
1699.02246	267.90821
1697.34375	491.07521
1695.66504	1306.27599
1693.98633	269.9875
1692.30664	482.00739
1690.62695	-289.11242
1688.94629	802.28158
1687.26563	81.02933
1685.58398	358.66001
1683.90234	923.82119
1682.21973	588.27339
1680.53809	799.56209
1678.85449	676.59904
1677.1709	826.34263
1675.48731	206.03979
1673.80371	2020.75902
1672.11816	2041.22228
1670.43359	1576.89458
1668.74805	2289.85326
1667.06152	2037.68239
1665.37598	3327.80248
1663.68848	2837.29909
1662.00195	3298.11162
1660.31348	3882.91753
1658.62598	4724.75225
1656.9375	5697.8214
1655.24805	6142.29284
1653.55859	6047.62304
1651.86914	6998.30602
1650.17871	7623.3579
1648.48828	8416.54027
1646.79688	8924.83678
1645.10547	9089.70495
1643.41406	9676.68432
1641.72168	9515.63634
1640.02832	10460.48742
1638.33496	11749.53283
1636.6416	12412.18908
1634.94727	14293.38292
1633.25293	15327.8092
1631.55762	15247.84703
1629.86231	16062.91661
1628.16699	16869.32775
1626.4707	18059.60729
1624.77344	17699.98326
1623.07617	19848.50622
1621.37891	20480.56676
1619.68066	22093.77599
1617.98242	23569.65245
1616.2832	24373.19738
1614.58398	24706.54455
1612.88477	26324.31554
1611.18457	28745.75353
1609.4834	29649.50597
1607.7832	30756.984
1606.08106	32374.96984
1604.37988	32338.13146
1602.67676	33298.46105
1600.97461	35069.18615
1599.27148	36333.64904
1597.56738	37614.75744
1595.86328	39661.51769
1594.15918	42794.71837
1592.4541	43774.85997
1590.74805	46710.06017
1589.04297	49037.35021
1587.33691	50534.3424
1585.62988	51807.1842
1583.92285	51871.62267
1582.21484	51100.33849
1580.50684	50004.3424
1578.79883	49006.58361
1577.08984	49043.02892
1575.38086	48230.24083
1573.6709	48192.56505
1571.95996	49297.05236
1570.25	46510.41173
1568.53906	46365.68517
1566.82715	44368.99083
1565.11523	43558.17541
1563.40332	43059.85509
1561.69043	41717.96056
1559.97656	40739.44738
1558.26269	40323.99083
1556.54883	40351.36144
1554.83398	40040.4923
1553.11914	40934.44494
1551.4043	40724.42784
1549.6875	40198.26086
1547.97168	39617.79211
1546.25488	40034.33019
1544.53711	40482.87023
1542.82031	40271.5299
1541.10156	41161.2467
1539.38281	41956.16369
1537.66406	42421.0172
1535.94434	41647.22326
1534.22461	41148.83947
1532.50488	40545.75597
1530.78418	41552.67247
1529.0625	40638.53673
1527.34082	39442.92394
1525.61914	39715.66564
1523.89648	38412.64074
1522.17383	38526.75207
1520.45019	38391.67882
1518.72656	38282.24767
1517.00195	37960.04552
1515.27734	38659.78917
1513.55176	38706.33947
1511.82617	37122.79699
1510.09961	36023.69298
1508.37402	35816.4005
1506.64648	33969.44249
1504.91894	33641.20031
1503.19141	31743.03869
1501.46289	29241.34679
1499.73438	27562.71154
1498.00488	24676.06115
1496.27539	22633.93957
1494.54492	19316.34191
1492.81445	16692.09142
1491.08398	15612.97521
1489.35254	13093.66002
1487.62012	10051.85216
1485.88769	8360.33117
1484.15527	5546.46001
1482.42188	5734.13854
1480.68848	3007.4706
1478.9541	2598.81444
1477.21973	2259.98845
1475.48438	774.59283
1473.74902	1228.44877
1472.01269	-206.27673
1470.27637	756.20668
1468.54004	1203.78316
1466.80273	2218.90645
1465.06445	1616.00713
1463.32715	2523.16549
1461.58789	3055.575
1459.84863	5318.59014
1458.10938	6802.3319
1456.36914	9131.58605
1454.62891	10027.52355
1452.88867	11179.07384
1451.14648	12521.51525
1449.40527	12418.23156
1447.66309	13246.23083
1445.91992	14172.54186
1444.17676	13800.95617
1442.43359	14121.13195
1440.68945	14175.91466
1438.94531	14429.55724
1437.20019	13915.0736
1435.4541	15557.66271
1433.70898	16164.71471
1431.96191	16029.06774
1430.21582	15034.07628
1428.46875	13814.42419
1426.7207	12210.07726
1424.97266	11332.48083
1423.22363	10490.39098
1421.47461	9669.68236
1419.72559	8144.54198
1417.97559	6530.85851
1416.22461	6318.86877
1414.47461	6010.87682
1412.72266	4750.13036
1410.9707	4524.01769
1409.21875	4532.42681
1407.46582	3794.89629
1405.71289	4737.29864
1403.95898	4976.35351
1402.20508	6021.00378
1400.45117	6217.32397
1398.69531	8410.61864
1396.94043	11039.25573
1395.18457	13723.49279
1393.42773	20273.41955
1391.6709	25736.04894
1389.91406	33856.61046
1388.15625	41332.3258
1386.39844	45834.10314
1384.63965	48716.38341
1382.87988	49930.95861
1381.12109	47048.77599
1379.36035	42400.22619
1377.60059	37040.58019
1375.83887	32426.70812
1374.07813	25900.56554
1372.31641	20703.5233
1370.55371	17170.13097
1368.79102	12664.78551
1367.02734	10429.17089
1365.26367	6628.52819
1363.5	5861.82409
1361.73535	3815.91954
1359.96973	2949.97167
1358.2041	2081.95302
1356.43848	591.49901
1354.67188	1396.93136
1352.90527	1442.04221
1351.13769	519.61892
1349.37012	507.2352
1347.60156	517.09527
1345.83301	295.79854
1344.06348	1922.91524
1342.29394	4039.2658
1340.52344	4327.06945
1338.75293	4858.46715
1336.98144	4118.4644
1335.20996	3738.4519
1333.4375	2720.50802
1331.66504	2505.02004
1329.89258	686.31174
1328.11914	1727.0123
1326.34473	2743.83367
1324.57031	3431.56164
1322.7959	4642.70818
1321.02051	3747.12468
1319.24414	3792.71856
1317.46875	2763.52621
1315.69141	2724.1982
1313.91406	1200.90398
1312.13672	975.24949
1310.3584	1685.65771
1308.58008	632.8561
1306.80078	666.51021
1305.02148	967.11523
1303.24121	55.19853
1301.46094	1385.95464
1299.67969	1140.75307
1297.89844	1088.91172
1296.11621	468.76521
1294.33398	681.1766
1292.55176	-243.83479
1290.76856	1283.17266
1288.98438	726.97872
1287.20019	841.83976
1285.41504	-12.05714
1283.62988	565.0254
1281.84473	1355.25724
1280.05859	1441.93418
1278.27148	3825.54082
1276.48438	4578.38842
1274.69727	7344.34118
1272.90918	8271.33764
1271.12109	7980.21276
1269.33203	7992.64806
1267.54199	7376.0349
1265.75195	7490.5631
1263.96191	5362.8452
1262.1709	5412.70879
1260.37988	4006.82989
1258.58789	3727.72435
1256.7959	3132.93035
1255.00293	2854.74126
1253.20996	3114.89812
1251.41602	3743.00024
1249.62207	3628.31243
1247.82715	3132.25194
1246.03223	2709.18508
1244.23633	2161.54623
1242.44043	1863.53978
1240.64356	1711.10768
1238.84668	2303.20486
1237.04883	3019.44646
1235.25098	3329.78795
1233.45313	3251.79998
1231.6543	3218.43969
1229.85449	2343.97924
1228.05469	1818.59945
1226.25391	2053.57931
1224.45313	2519.20201
1222.65234	657.97465
1220.84961	614.34713
1219.04785	1211.97675
1217.24512	237.2467
1215.44141	1536.95203
1213.63769	2175.55349
1211.83398	4158.10338
1210.0293	5741.71545
1208.22363	7692.17565
1206.41797	8436.90771
1204.61231	8976.28332
1202.80566	9096.94921
1200.99805	8330.67602
1199.19043	8210.4276
1197.38281	7716.49633
1195.57422	7475.73522
1193.76465	6586.31017
1191.95508	7353.36645
1190.14551	6288.1339
1188.33496	5716.47985
1186.52441	4063.42168
1184.71289	3931.33214
1182.90039	3896.59643
1181.08789	3220.44042
1179.27539	3396.95317
1177.46191	3879.73821
1175.64844	4253.02801
1173.83398	3487.74114
1172.01856	5069.60729
1170.20313	5515.93419
1168.38769	5876.59215
1166.57129	6830.33117
1164.75488	7629.48949
1162.9375	7359.67321
1161.11914	8723.63256
1159.30078	10281.86071
1157.48242	11277.71398
1155.66309	13145.47155
1153.84375	15323.14489
1152.02344	16117.71886
1150.20313	17984.89171
1148.38184	20042.03771
1146.55957	21434.63536
1144.73731	22958.9298
1142.91504	21636.55675
1141.0918	20846.78991
1139.26856	19575.13341
1137.44434	18422.68712
1135.61914	16840.00036
1133.79394	15819.6964
1131.96875	16005.72301
1130.14258	15409.78063
1128.31641	15201.21251
1126.48926	15165.14684
1124.66113	15781.65441
1122.83398	15687.68468
1121.00488	17223.03991
1119.17578	17411.38219
1117.34668	16672.24157
1115.5166	17054.22765
1113.68555	15808.61242
1111.85449	15367.31359
1110.02344	14567.22081
1108.19141	13965.95739
1106.35938	14188.20348
1104.52637	14615.30431
1102.69238	13770.09557
1100.8584	15166.49328
1099.02441	15826.62755
1097.18945	16460.21032
1095.35352	16293.92858
1093.51758	16718.37926
1091.68164	17492.35753
1089.84473	16961.94005
1088.00684	17824.88561
1086.16894	17969.77819
1084.33106	18944.57921
1082.49219	18291.08678
1080.65234	20129.18126
1078.8125	21411.68126
1076.97168	21790.72423
1075.13086	22731.04894
1073.29004	23627.0255
1071.44824	23055.96349
1069.60547	23370.60216
1067.76269	24043.10949
1065.91894	23742.77501
1064.07519	23375.0089
1062.23047	23442.82384
1060.38574	23895.10656
1058.54102	24711.28332
1056.69434	26187.99962
1054.84863	25944.13488
1053.00098	27335.04796
1051.1543	27130.98302
1049.30566	27637.71886
1047.45801	27109.81603
1045.6084	25649.40587
1043.75977	24451.85705
1041.90918	22871.13683
1040.05859	22172.25011
1038.20801	20508.05822
1036.35644	19779.14098
1034.50488	18824.94909
1032.65234	18193.49157
1030.79981	17810.51915
1028.94629	16842.94347
1027.0918	16345.56432
1025.23731	15237.02428
1023.38281	15383.70153
1021.52734	15509.75499
1019.6709	15256.31139
1017.81445	15840.80358
1015.95801	16163.0277
1014.10059	17004.12511
1012.24219	16738.71984
1010.38379	17132.85924
1008.52539	18802.16466
1006.66602	20235.84997
1004.80566	20915.36657
1002.94531	22152.88732
1001.08398	23901.17834
999.22266	22267.33312
997.36035	20446.87292
995.49805	18844.3485
993.63477	17456.29674
991.77148	15140.1151
989.90723	14518.13268
988.04297	13438.90661
986.17773	12940.89757
984.3125	12216.12706
982.44629	12639.21667
980.5791	11554.66588
978.71191	11864.31188
976.84473	12263.7943
974.97656	13043.01794
973.10742	13585.4215
971.23828	14041.09045
969.36914	14230.35558
967.49902	14592.85802
965.62793	15677.57116
963.75684	15581.04406
961.88477	16419.52917
960.0127	16676.15148
958.13965	16155.32628
956.2666	16406.3004
954.39355	15830.53991
952.51855	15269.0653
950.64355	15322.89098
948.76855	14610.69494
946.89258	14384.25328
945.0166	14726.16857
943.13965	14345.84264
941.2627	14354.71959
939.38477	15345.90368
937.50586	15714.70739
935.62695	15292.73595
933.74707	14935.24328
931.86719	15615.75353
929.9873	15476.40172
928.10645	15454.47057
926.22461	15778.2462
924.34277	16017.53087
922.45996	14707.58459
920.57715	13991.93273
918.69336	13328.14244
916.80957	12147.98253
914.9248	10901.15758
913.03906	9828.859
911.1543	8835.30736
909.26758	8128.40978
907.38086	6889.77025
905.49414	6330.4569
903.60645	6568.69848
901.71777	5794.03905
899.8291	6446.26501
897.93945	4840.62597
896.0498	3867.87633
894.15918	3873.3341
892.26855	3865.34154
890.37695	3287.77166
888.48535	3220.4218
886.59277	3768.17998
884.7002	4082.21044
882.80664	5346.29796
880.91211	6136.61718
879.01758	5888.49279
877.12305	5397.81499
875.22754	5656.59032
873.33105	5200.04522
871.43457	4875.669
869.53711	3321.68798
867.63965	4095.11083
865.74121	3717.86443
863.84277	3499.13305
861.94336	3504.39763
860.04395	2242.674
858.14355	1978.64156
856.24219	1873.16595
854.34082	1307.4262
852.43945	1434.01235
850.53711	1080.95239
848.63379	271.63707
846.73047	1030.8513
844.82617	421.39728
842.92188	1013.56351
841.0166	600.75674
839.11133	800.91714
837.20508	1175.95632
835.29883	-17.64548
833.3916	678.02808
831.4834	624.90063
829.5752	332.54982
827.66699	368.69335
825.75684	1381.9219
823.84766	1471.2042
821.9375	1109.86463
820.02637	653.40024
818.11426	860.76311
816.20313	1311.41248
814.29004	735.81399
812.37695	742.31784
810.46387	461.89507
808.5498	1094.89408
806.63477	1278.30098
804.71973	667.95944
802.80371	489.63486
800.8877	-140.63162
798.9707	998.96817
797.05371	484.87776
795.13574	353.68816
793.21777	102.07899
791.29883	-16.75959
789.37891	571.09888
787.45898	-34.89527
785.53906	221.25459
783.61719	1361.57476
781.69629	527.98732
779.77344	264.54208
777.85156	615.96882
775.92773	792.09154
774.00391	928.86651
772.08008	337.26973
770.15527	628.48274
768.22949	1905.21764
766.30371	727.46207
764.37793	845.60304
762.4502	911.51738
760.52344	1464.41961
758.59473	957.48204
756.66602	973.04269
754.7373	1529.978
752.80762	1401.9811
750.87695	1824.77102
748.94629	3929.41656
747.01563	2625.02431
745.08301	1971.38235
743.15137	1555.35612
741.21777	858.36088
739.28418	1087.78921
737.35059	1100.13261
735.41602	1214.14022
733.48047	499.94155
731.54492	736.53245
729.60938	321.9037
727.67188	751.2367
725.73535	134.11333
723.79688	626.99694
721.8584	298.64776
719.91992	254.0596
717.98047	111.00694
716.04004	636.33285
714.09961	1184.50162
712.1582	511.16801
710.2168	1409.59669
708.27441	1189.2925
706.33203	1235.23099
704.38867	1825.77672
702.44434	2672.13003
700.5	3399.25451
698.55566	4051.92724
696.61035	6223.54589
694.66406	6662.70666
692.7168	7653.98778
690.77051	8461.31139
688.82227	10881.06481
686.87402	12278.7235
684.92578	14482.11705
682.97559	19058.43297
681.02637	23269.33019
679.0752	27861.93273
677.125	33157.79943
675.17285	35784.7379
673.2207	34854.98693
671.26855	33954.61828
669.31543	30913.06798
667.36133	28663.19005
665.40723	26136.97179
663.45215	25818.24865
661.49707	23464.54747
659.54102	20219.93322
657.58398	18060.71935
655.62695	15287.16954
653.66895	13902.91051
651.71094	12434.62926
649.75195	10640.63573
647.79297	9874.38329
645.83301	9833.00817
643.87305	9902.78295
641.91211	11165.82067
639.9502	12763.97619
637.98828	14265.22008
636.02539	17594.5548
634.0625	18434.6964
632.09863	20629.3717
630.13379	22060.2506
628.16895	22654.81603
626.20313	22226.61534
624.2373	21859.08849
622.27148	19807.75548
620.30371	18526.16613
618.33594	16482.2257
616.36816	14916.03185
614.39941	13602.32824
612.42969	12524.76964
610.45996	12074.68908
608.48926	10940.15295
606.51855	10924.7733
604.54688	8683.62889
602.57422	8031.17528
600.60156	6955.72729
598.62793	6283.6997
596.6543	5301.7539
594.67969	4766.3413
592.70508	3649.32378
590.72949	2924.33828
588.75293	1737.00048
586.77637	1662.03283
584.79883	1007.33327
582.82129	613.48061
580.84277	196.54127
578.86426	372.79452
576.88477	273.24188
574.9043	636.48317
572.92383	782.99834
570.94238	2060.28066
568.96094	2290.36123
566.97852	4610.50878
564.99512	4717.69414
563.01172	4669.20507
561.02734	6183.82665
559.04297	6546.86254
557.05762	6307.31908
555.07227	4760.19658
553.08594	4353.39361
551.09863	3230.7105
549.11133	418.50874