#Wave		#Intensity
1800.529297	802.370056
1798.058594	831.602173
1795.587891	818.254272
1793.115234	860.321350
1790.642578	818.773804
1788.169922	856.788208
1785.697266	838.415771
1783.222656	830.116211
1780.746094	839.927673
1778.269531	820.570740
1775.792969	832.389587
1773.316406	871.336304
1770.837891	868.062195
1768.357422	868.807556
1765.878906	834.408752
1763.398438	928.517090
1760.916016	901.145264
1758.435547	849.712830
1755.951172	840.432922
1753.468750	899.335449
1750.984375	885.034485
1748.498047	878.757996
1746.013672	872.485107
1743.527344	841.180725
1741.039063	866.958008
1738.550781	887.715698
1736.062500	841.426819
1733.574219	880.183289
1731.083984	852.922363
1728.591797	876.657776
1726.099609	862.405090
1723.607422	836.172607
1721.115234	890.851440
1718.621094	858.635498
1716.126953	905.289673
1713.630859	884.064392
1711.134766	895.769714
1708.636719	884.531921
1706.140625	908.192871
1703.640625	906.924011
1701.142578	907.648438
1698.642578	889.447815
1696.140625	891.172546
1693.640625	881.946350
1691.138672	903.574524
1688.634766	904.298218
1686.130859	903.032288
1683.626953	893.813110
1681.121094	908.453735
1678.615234	931.034485
1676.109375	873.141418
1673.601563	924.517029
1671.093750	903.391724
1668.583984	918.006836
1666.074219	910.785950
1663.564453	943.242920
1661.052734	964.773315
1658.541016	950.605713
1656.027344	941.401245
1653.513672	994.613098
1651.000000	1030.956909
1648.484375	1044.507324
1645.968750	1010.541199
1643.453125	997.373962
1640.935547	942.669800
1638.417969	952.274475
1635.898438	942.101990
1633.378906	949.724243
1630.859375	975.125183
1628.337891	938.287415
1625.816406	930.105591
1623.292969	914.031860
1620.769531	935.465332
1618.246094	977.601746
1615.720703	980.265320
1613.195313	937.576477
1610.669922	972.774597
1608.142578	967.554504
1605.613281	982.037170
1603.085938	972.878357
1600.556641	956.834106
1598.025391	948.672180
1595.494141	959.207336
1592.962891	966.785461
1590.429688	958.627502
1587.896484	959.320557
1585.363281	975.734802
1582.828125	966.598816
1580.292969	987.910767
1577.755859	1022.953796
1575.218750	1057.975464
1572.681641	993.881836
1570.142578	1033.794922
1567.603516	1027.598633
1565.062500	1001.801208
1562.521484	954.460571
1559.980469	986.499512
1557.437500	953.882080
1554.894531	969.257629
1552.349609	976.793762
1549.804688	987.260437
1547.259766	1028.043579
1544.712891	1014.041565
1542.166016	993.204956
1539.619141	1031.994141
1537.070313	1022.888123
1534.519531	988.393860
1531.970703	967.589722
1529.417969	1009.267212
1526.867188	952.365051
1524.314453	995.972534
1521.761719	990.793762
1519.207031	962.220581
1516.652344	1007.734009
1514.095703	1023.016296
1511.539063	1078.223267
1508.982422	1090.553345
1506.423828	1094.115112
1503.865234	1089.889526
1501.306641	1078.856567
1498.746094	1031.846802
1496.185547	987.782288
1493.623047	985.537415
1491.060547	980.378906
1488.496094	973.280640
1485.931641	957.447205
1483.367188	985.306824
1480.800781	1001.503906
1478.234375	999.257996
1475.667969	1013.500916
1473.099609	1001.556824
1470.531250	992.527649
1467.960938	981.565857
1465.390625	1028.731079
1462.818359	1003.238953
1460.246094	970.017578
1457.673828	1012.303650
1455.099609	1011.994202
1452.525391	1025.225464
1449.951172	1018.143616
1447.375000	992.700439
1444.796875	997.228210
1442.220703	1024.937378
1439.642578	1004.343567
1437.062500	1022.378967
1434.482422	1002.763428
1431.902344	1044.908691
1429.320313	1036.872192
1426.738281	1001.841980
1424.154297	1050.695801
1421.570313	1023.391602
1418.986328	1027.894531
1416.400391	968.832886
1413.814453	1059.997803
1411.226563	1025.023804
1408.638672	1026.633423
1406.050781	1024.394531
1403.460938	1035.618896
1400.871094	1066.061768
1398.279297	1023.450867
1395.687500	1028.900513
1393.095703	1023.782288
1390.501953	1073.392700
1387.908203	1071.143066
1385.312500	1039.149780
1382.716797	1055.136719
1380.119141	1073.031494
1377.521484	1067.908081
1374.923828	1020.621216
1372.324219	1057.670288
1369.724609	1103.316040
1367.125000	1139.359009
1364.523438	1193.565430
1361.919922	1197.981812
1359.318359	1172.741943
1356.712891	1129.348389
1354.109375	1140.471680
1351.503906	1107.626953
1348.896484	1093.909790
1346.291016	1046.773071
1343.681641	1058.862183
1341.074219	1050.899292
1338.464844	1046.757813
1335.853516	1036.895386
1333.242188	961.239746
1330.630859	1020.048279
1328.017578	1067.384033
1325.404297	1032.755737
1322.789063	1032.436279
1320.173828	1078.771606
1317.558594	1067.015747
1314.941406	1076.200928
1312.324219	1164.334351
1309.705078	1080.289429
1307.085938	1146.501343
1304.466797	1075.818726
1301.845703	1050.783447
1299.224609	1055.206665
1296.601563	1073.869263
1293.978516	1061.196777
1291.353516	1006.780396
1288.728516	1025.440186
1286.103516	1026.070190
1283.476563	1053.244141
1280.849609	1071.871582
1278.220703	1080.065552
1275.591797	1073.100098
1272.962891	1028.265381
1270.332031	1065.807617
1267.701172	1087.239990
1265.068359	1050.955688
1262.435547	1054.411499
1259.800781	1052.192749
1257.166016	1062.261230
1254.531250	1044.924683
1251.894531	1032.321045
1249.257813	1056.548584
1246.619141	1060.939087
1243.980469	1062.495728
1241.341797	1071.597778
1238.701172	1066.548706
1236.058594	1094.497925
1233.417969	1043.265625
1230.775391	1041.055908
1228.130859	1019.068909
1225.486328	1074.302002
1222.839844	1070.201782
1220.195313	1051.048584
1217.546875	1092.109497
1214.900391	1057.915161
1212.250000	1104.588379
1209.601563	1035.639160
1206.951172	1073.834473
1204.298828	1050.958130
1201.648438	1106.963501
1198.994141	1064.379883
1196.341797	1121.284058
1193.685547	1099.358643
1191.031250	1136.523560
1188.375000	1142.729858
1185.718750	1120.817749
1183.060547	1128.898315
1180.400391	1104.194214
1177.742188	1118.828369
1175.082031	1054.832031
1172.419922	1101.284790
1169.757813	1050.429077
1167.095703	1069.736328
1164.431641	1044.161255
1161.767578	1099.903442
1159.101563	1077.137207
1156.435547	1037.574829
1153.767578	1059.655762
1151.101563	1039.723022
1148.431641	1055.257813
1145.761719	1048.396973
1143.091797	1075.108276
1140.419922	1093.413208
1137.748047	1101.456055
1135.076172	1078.751953
1132.402344	1080.275024
1129.726563	1119.036011
1127.052734	1108.446167
1124.375000	1097.862793
1121.699219	1104.027710
1119.019531	1075.785645
1116.341797	1103.332031
1113.662109	1090.904297
1110.982422	1109.138916
1108.300781	1103.217285
1105.617188	1100.084229
1102.935547	1110.873657
1100.251953	1086.401489
1097.566406	1134.286499
1094.880859	1090.351440
1092.193359	1100.202637
1089.507813	1123.019653
1086.818359	1170.831909
1084.128906	1116.753906
1081.439453	1134.915039
1078.750000	1122.525757
1076.058594	1125.871094
1073.365234	1060.776978
1070.671875	1118.687012
1067.978516	1083.211670
1065.283203	1069.009521
1062.587891	1111.159180
1059.890625	1128.351074
1057.193359	1104.916748
1054.494141	1098.107056
1051.794922	1109.751343
1049.095703	1115.854736
1046.394531	1097.062866
1043.693359	1097.636475
1040.990234	1142.432617
1038.287109	1118.123413
1035.582031	1105.798950
1032.876953	1126.617798
1030.169922	1093.134766
1027.462891	1133.260986
1024.755859	1127.383545
1022.046875	1090.254395
1019.337891	1108.287231
1016.626953	1100.585327
1013.916016	1126.868652
1011.203125	1121.919556
1008.490234	1139.918701
1005.777344	1134.050659
1003.062500	1114.427856
1000.347656	1130.577759
997.630859	1144.883789
994.914063	1113.363159
992.195313	1156.062988
989.476563	1105.327393
986.755859	1125.115356
984.035156	1121.095703
981.314453	1130.801880
978.591797	1134.099365
975.867188	1109.965454
973.142578	1111.439087
970.417969	1127.531128
967.691406	1158.227539
964.964844	1130.463379
962.238281	1142.881958
959.509766	1118.790283
956.779297	1109.309937
954.048828	1118.986816
951.318359	1159.654297
948.585938	1154.726318
945.853516	1158.001221
943.119141	1131.217163
940.384766	1163.633423
937.648438	1151.427856
934.912109	1191.095825
932.175781	1201.629761
929.437500	1158.505371
926.697266	1173.587891
923.957031	1174.120361
921.216797	1167.384399
918.474609	1157.928101
915.732422	1194.779907
912.988281	1165.353394
910.244141	1143.203857
907.500000	1143.743774
904.753906	1179.645264
902.005859	1157.511963
899.257813	1177.981079
896.509766	1164.014771
893.759766	1129.229370
891.009766	1137.013550
888.257813	1119.453247
885.505859	1119.997803
882.751953	1132.298828
879.998047	1152.728638
877.242188	1146.030762
874.486328	1119.459595
871.730469	1118.195801
868.972656	1134.991333
866.214844	1119.280518
863.455078	1154.111450
860.693359	1114.950562
857.933594	1123.608765
855.169922	1152.995117
852.408203	1142.709961
849.644531	1154.953735
846.878906	1200.511963
844.113281	1176.716064
841.347656	1148.435059
838.580078	1156.161743
835.810547	1120.709717
833.041016	1141.927124
830.271484	1169.422729
827.500000	1160.058838
824.728516	1156.988770
821.955078	1167.390381
819.181641	1138.286133
816.408203	1182.788208
813.630859	1200.347656
810.855469	1152.427002
808.078125	1169.087891
805.298828	1172.294189
802.521484	1170.122314
799.740234	1185.865112
796.958984	1174.736084
794.177734	1158.243530
791.394531	1152.499023
788.611328	1170.015259
785.826172	1170.529785
783.041016	1158.528687
780.255859	1219.813477
777.466797	1213.163940
774.679688	1270.818481
771.890625	1264.156128
769.099609	1258.390503
766.308594	1241.029907
763.517578	1151.436890
760.724609	1150.170776
757.931641	1124.839844
755.136719	1153.877686
752.341797	1087.587769
749.544922	1135.317749
746.748047	1123.376099
743.949219	1150.596069
741.150391	1131.540161
738.349609	1141.842896
735.548828	1166.362671
732.748047	1129.545532
729.945313	1104.301636
727.140625	1123.480225
724.335938	1089.375977
721.531250	1094.345825
718.724609	1095.763184
715.917969	1089.196655
713.109375	1076.427612
710.300781	1105.326904
707.490234	1139.523682
704.679688	1120.549438
701.867188	1104.243774
699.054688	1140.177368
696.240234	1106.176758
693.425781	1116.430908
690.611328	1110.759521
687.794922	1111.280151
684.976563	1093.240845
682.158203	1116.737305
679.339844	1105.773315
676.519531	1122.186646
673.697266	1112.992798
670.875000	1057.923218
668.052734	1137.842896
665.228516	1095.145508
662.404297	1133.571167
659.578125	1123.506470
656.751953	1098.473022
653.923828	1118.366577
651.095703	1080.145996
648.265625	1118.512695
645.435547	1117.265747
642.603516	1084.359253
639.771484	1114.773804
636.939453	1111.770996
634.105469	1071.869507
631.269531	1078.543579
628.433594	1080.822998
625.595703	1085.734009
622.757813	1042.383057
619.919922	1085.896973
617.080078	1177.609009
614.240234	1305.199341
611.398438	1281.986694
608.554688	1166.810669
605.712891	1096.370850
602.867188	1111.767090
600.021484	1080.771606
597.175781	1051.546143
594.328125	1030.210571
591.480469	1112.050781
588.630859	1065.363892
585.781250	1029.191772
582.931641	1070.775024
580.078125	1080.898926
577.226563	1035.155884
574.373047	1064.480103
571.517578	1007.433228
568.662109	1035.002930
565.804688	1023.329468
562.947266	1037.804810
560.089844	1025.266602
557.230469	995.320679
554.369141	1003.696777
551.507813	1059.059082
548.646484	1010.862427
