#Wave	#Intensity
1679.006836	2.881422
1678.018555	28.316736
1677.030273	-6.456489
1676.041992	27.099018
1675.052734	25.679777
1674.064453	32.108425
1673.075195	16.152353
1672.084961	-14.634418
1671.095703	-30.049555
1670.105469	-7.483592
1669.115234	-17.383652
1668.125	-37.108711
1667.134766	-3.813816
1666.144531	29.67791
1665.15332	-77.366241
1664.162109	-30.918747
1663.170898	-4.398884
1662.179688	-48.02758
1661.1875	-26.190323
1660.195313	20.904144
1659.203125	-24.723398
1658.210938	-9.961293
1657.21875	25.00742
1656.225586	17.457941
1655.233398	27.598316
1654.239258	15.291411
1653.246094	18.15064
1652.25293	-8.949942
1651.258789	1.650192
1650.264648	17.359291
1649.270508	20.637926
1648.276367	44.040264
1647.28125	44.989594
1646.287109	13.486835
1645.291992	32.123436
1644.296875	65.839386
1643.300781	32.076546
1642.305664	35.90913
1641.30957	-0.200721
1640.313477	26.259342
1639.317383	10.279064
1638.320313	-0.643554
1637.324219	5.977687
1636.327148	-39.807175
1635.330078	-38.081951
1634.332031	-48.798538
1633.334961	-14.540428
1632.336914	32.217995
1631.338867	-35.780041
1630.34082	-3.936061
1629.342773	10.467141
1628.34375	-24.977173
1627.344727	-15.506961
1626.345703	-8.508595
1625.34668	10.969202
1624.347656	27.968531
1623.347656	189.449905
1622.347656	179.048035
1621.347656	235.89212
1620.347656	205.602066
1619.34668	202.714813
1618.34668	167.494339
1617.345703	224.345947
1616.34375	343.364136
1615.342773	280.813751
1614.341797	444.539307
1613.339844	416.808807
1612.337891	498.442169
1611.334961	572.593384
1610.333008	683.980103
1609.330078	698.465759
1608.328125	715.432617
1607.324219	779.563416
1606.321289	866.008484
1605.318359	860.605103
1604.314453	942.039551
1603.310547	1068.0896
1602.306641	1345.363037
1601.301758	1736.573364
1600.297852	2487.057617
1599.292969	3274.402344
1598.288086	3813.633789
1597.283203	3626.786377
1596.277344	2801.004395
1595.272461	2002.80896
1594.266602	1445.096558
1593.260742	1073.261353
1592.253906	889.660645
1591.248047	780.363403
1590.241211	703.270142
1589.234375	712.77002
1588.227539	863.206726
1587.219727	1055.606689
1586.212891	1411.052124
1585.205078	1968.977295
1584.197266	3018.30957
1583.189453	4215.404785
1582.180664	4878.581543
1581.171875	4788.436035
1580.163086	4118.237793
1579.154297	3460.663086
1578.145508	2976.087891
1577.135742	2580.52832
1576.126953	2266.529785
1575.117188	1908.279785
1574.106445	1414.588989
1573.09668	1093.648926
1572.085938	777.776428
1571.075195	585.231812
1570.064453	488.841187
1569.053711	486.081421
1568.041992	439.007324
1567.03125	364.879547
1566.019531	364.625214
1565.006836	307.780823
1563.995117	228.825241
1562.982422	243.376694
1561.970703	201.368683
1560.957031	142.17511
1559.944336	129.718094
1558.931641	97.613327
1557.917969	122.042877
1556.904297	33.468811
1555.890625	67.74263
1554.876953	45.533833
1553.862305	18.433493
1552.847656	8.535299
1551.833008	6.012757
1550.818359	-23.486877
1549.802734	3.453464
1548.788086	27.940228
1547.772461	-23.581766
1546.756836	3.372884
1545.740234	64.639198
1544.724609	3.373154
1543.708008	-11.308959
1542.691406	54.853851
1541.674805	45.087494
1540.657227	50.026745
1539.640625	72.109894
1538.623047	47.698051
1537.605469	13.521641
1536.586914	20.95763
1535.569336	-3.391573
1534.550781	18.740459
1533.532227	-10.462404
1532.513672	28.795635
1531.494141	-19.92086
1530.475586	77.982422
1529.456055	4.875266
1528.436523	27.052826
1527.416016	59.000198
1526.396484	12.832795
1525.375977	17.949028
1524.355469	27.955782
1523.334961	8.696826
1522.313477	-20.297012
1521.292969	-7.812507
1520.271484	-48.955448
1519.25	-36.444988
1518.228516	7.752436
1517.206055	-57.69455
1516.183594	-20.794296
1515.161133	-32.605209
1514.138672	9.167655
1513.116211	9.550708
1512.092773	63.489857
1511.069336	59.018124
1510.045898	139.707458
1509.022461	271.45163
1507.998047	390.992554
1506.974609	508.061798
1505.950195	520.570862
1504.924805	518.504089
1503.900391	462.994202
1502.875	397.801544
1501.850586	206.354507
1500.824219	228.677399
1499.798828	127.189453
1498.773438	108.276009
1497.74707	135.485519
1496.720703	87.482773
1495.694336	63.764423
1494.666992	64.315346
1493.640625	113.364136
1492.613281	12.109404
1491.585938	73.280968
1490.557617	151.395035
1489.530273	79.286652
1488.501953	43.545403
1487.473633	75.626205
1486.445313	78.647285
1485.416016	81.672821
1484.387695	29.042805
1483.358398	10.312002
1482.329102	52.065571
1481.299805	113.152184
1480.269531	46.069702
1479.239258	102.303795
1478.208984	216.520752
1477.178711	163.964813
1476.148438	179.075775
1475.117188	143.461197
1474.085938	132.010696
1473.054688	154.365555
1472.023438	193.607544
1470.991211	191.808319
1469.958984	76.611084
1468.926758	111.019455
1467.894531	34.473644
1466.861328	30.29516
1465.829102	-22.097734
1464.795898	-28.676947
1463.762695	-32.846516
1462.728516	13.574967
1461.695313	-33.963753
1460.661133	-35.731487
1459.626953	-13.426905
1458.592773	-15.207413
1457.557617	-33.837631
1456.522461	5.279829
1455.487305	22.724783
1454.452148	-10.349589
1453.416992	-19.371437
1452.380859	14.876069
1451.344727	-8.582212
1450.308594	-24.829422
1449.272461	14.178592
1448.235352	-42.915951
1447.199219	17.67454
1446.162109	32.612835
1445.124023	61.938004
1444.086914	0.043958
1443.048828	10.147869
1442.010742	-22.943047
1440.972656	15.919666
1439.93457	4.399515
1438.895508	-11.921794
1437.856445	43.656113
1436.817383	-20.617558
1435.77832	-13.00292
1434.739258	4.176338
1433.699219	4.571741
1432.65918	4.953019
1431.619141	-11.436234
1430.578125	-18.259739
1429.538086	-20.310102
1428.49707	18.293114
1427.456055	30.555727
1426.414063	33.232994
1425.373047	4.814091
1424.331055	67.217232
1423.289063	77.004936
1422.24707	101.106392
1421.204102	122.792099
1420.162109	115.793602
1419.119141	137.4319
1418.076172	99.366066
1417.032227	166.307709
1415.989258	87.652733
1414.945313	23.326468
1413.901367	49.640255
1412.857422	73.539307
1411.8125	28.272917
1410.767578	-12.226347
1409.722656	44.974583
1408.677734	75.924065
1407.632813	83.020882
1406.586914	25.795635
1405.541016	85.240601
1404.495117	30.379452
1403.448242	49.298672
1402.402344	56.292248
1401.355469	39.473225
1400.308594	53.55954
1399.261719	60.48531
1398.213867	48.368172
1397.166016	21.97415
1396.118164	102.505051
1395.070313	95.074875
1394.022461	187.389404
1392.973633	210.77356
1391.924805	217.506332
1390.875977	129.263885
1389.827148	171.56723
1388.777344	88.074982
1387.727539	42.55294
1386.677734	61.065567
1385.62793	-12.928595
1384.577148	-13.420969
1383.527344	-21.044813
1382.476563	2.118598
1381.424805	20.511793
1380.374023	38.87611
1379.322266	40.633694
1378.270508	56.574989
1377.21875	1.474584
1376.166992	52.87429
1375.114258	61.640396
1374.061523	8.876449
1373.008789	-15.504658
1371.956055	54.686623
1370.902344	-33.565331
1369.849609	-13.076033
1368.795898	5.020296
1367.741211	11.275237
1366.6875	-15.56006
1365.632813	11.910003
1364.578125	53.514275
1363.523438	31.348032
1362.467773	13.891081
1361.413086	-8.295732
1360.357422	-30.492859
1359.301758	25.128984
1358.245117	52.412109
1357.189453	63.163898
1356.132813	29.110813
1355.076172	35.112988
1354.019531	29.315384
1352.961914	35.278557
1351.904297	34.157246
1350.84668	101.295273
1349.789063	24.80348
1348.731445	40.107891
1347.672852	13.037698
1346.614258	54.179958
1345.555664	57.659939
1344.496094	4.691138
1343.4375	-5.954928
1342.37793	13.94105
1341.318359	33.813763
1340.257813	46.614754
1339.198242	82.884583
1338.137695	6.409485
1337.077148	75.512054
1336.016602	-7.996102
1334.955078	-11.694507
1333.893555	-31.826843
1332.832031	20.753141
1331.770508	35.776184
1330.708984	-3.145415
1329.646484	37.638306
1328.583984	5.741398
1327.521484	-12.093177
1326.458008	26.291363
1325.395508	8.440785
1324.332031	-30.486626
1323.268555	-41.312939
1322.204102	-42.781902
1321.140625	-51.277058
1320.076172	-38.721558
1319.011719	-54.247002
1317.946289	-39.373058
1316.881836	-54.904812
1315.816406	-0.312175
1314.750977	-15.858582
1313.685547	-50.09523
1312.619141	-2.564203
1311.552734	16.916185
1310.486328	31.714172
1309.419922	34.829956
1308.353516	28.605471
1307.286133	-14.955046
1306.21875	-18.839472
1305.151367	-8.72977
1304.083008	15.363989
1303.015625	46.441532
1301.947266	77.503471
1300.878906	68.935501
1299.80957	69.6894
1298.741211	33.175537
1297.671875	73.528511
1296.602539	39.359104
1295.532227	82.022697
1294.462891	122.343857
1293.392578	118.439705
1292.322266	144.78183
1291.250977	119.947754
1290.180664	232.319794
1289.109375	270.253693
1288.038086	515.032532
1286.966797	857.305542
1285.894531	1057.716309
1284.822266	1160.491333
1283.75	1258.583008
1282.677734	1319.491333
1281.605469	1517.329224
1280.532227	1805.592407
1279.458984	2100.697021
1278.385742	2291.296143
1277.311523	2300.926025
1276.238281	2282.738281
1275.164063	2498.696045
1274.089844	2994.999512
1273.014648	4232.564941
1271.94043	5812.452148
1270.865234	6942.333984
1269.790039	6656.916992
1268.713867	5181.695313
1267.638672	3656.215088
1266.5625	2550.259033
1265.486328	1877.432861
1264.40918	1563.432861
1263.333008	1344.398682
1262.255859	1236.449585
1261.178711	1006.05304
1260.100586	967.583008
1259.023438	993.838745
1257.945313	1010.857117
1256.867188	845.436462
1255.789063	684.722351
1254.709961	621.048401
1253.630859	665.891357
1252.551758	653.045593
1251.472656	690.974426
1250.393555	740.435547
1249.313477	766.83252
1248.233398	650.302124
1247.15332	434.73175
1246.072266	302.231049
1244.991211	185.934433
1243.910156	161.841614
1242.829102	179.229462
1241.748047	212.745071
1240.666016	223.246552
1239.583984	291.295624
1238.501953	352.43219
1237.418945	399.759399
1236.336914	545.977051
1235.253906	855.397644
1234.169922	1155.506104
1233.086914	1565.819092
1232.00293	1750.792603
1230.918945	1811.654663
1229.834961	1573.937622
1228.750977	1320.274414
1227.666016	1142.502686
1226.581055	907.451904
1225.496094	1051.149902
1224.411133	1070.921021
1223.325195	1237.499512
1222.239258	1426.958008
1221.15332	1380.212646
1220.067383	1267.038452
1218.980469	979.773132
1217.893555	720.151855
1216.806641	607.267639
1215.71875	389.111786
1214.631836	287.845367
1213.543945	259.89743
1212.456055	135.865067
1211.367188	75.976723
1210.279297	32.15144
1209.19043	52.406033
1208.101563	40.663452
1207.011719	10.661175
1205.922852	26.40612
1204.833008	26.172329
1203.743164	-58.564484
1202.65332	-33.608608
1201.5625	-36.042324
1200.47168	-15.621838
1199.380859	-4.317024
1198.290039	-6.685746
1197.198242	11.502886
1196.106445	43.392204
1195.014648	47.925247
1193.922852	63.878895
1192.830078	34.260277
1191.737305	13.793364
1190.644531	79.93721
1189.551758	116.461784
1188.458008	162.102234
1187.364258	291.98877
1186.270508	380.865173
1185.176758	665.446899
1184.082031	799.751343
1182.987305	1013.636658
1181.892578	924.963318
1180.797852	797.696228
1179.702148	706.880798
1178.606445	554.761841
1177.510742	466.356049
1176.415039	289.411377
1175.318359	291.997375
1174.22168	174.252472
1173.125	256.362732
1172.02832	259.015411
1170.930664	202.687256
1169.833008	223.54068
1168.735352	189.967072
1167.637695	31.703878
1166.539063	43.571228
1165.44043	55.452084
1164.341797	-5.171698
1163.243164	-38.561863
1162.143555	-3.963452
1161.043945	21.578627
1159.944336	-29.854248
1158.844727	-11.073949
1157.744141	9.978662
1156.643555	-27.789656
1155.542969	22.69779
1154.442383	141.026779
1153.34082	279.669006
1152.239258	377.5737
1151.137695	760.219482
1150.036133	1346.069092
1148.933594	2424.145752
1147.831055	4195.126953
1146.728516	5380.490723
1145.625	4838.319824
1144.522461	3323.626465
1143.418945	1940.506714
1142.314453	1331.835205
1141.210938	980.576294
1140.106445	760.278137
1139.001953	501.764435
1137.897461	410.172791
1136.792969	255.536118
1135.6875	152.798615
1134.582031	79.399475
1133.476563	64.59375
1132.370117	88.07943
1131.263672	10.271794
1130.157227	72.033875
1129.050781	32.530396
1127.944336	24.544226
1126.836914	57.050301
1125.729492	10.855309
1124.621094	83.826492
1123.513672	84.854164
1122.405273	99.369568
1121.296875	152.071976
1120.188477	231.705887
1119.079102	228.232193
1117.969727	271.905823
1116.860352	335.762634
1115.750977	466.908447
1114.640625	752.787048
1113.530273	1126.007935
1112.419922	1662.749268
1111.30957	2015.423218
1110.198242	1935.374878
1109.086914	1689.547363
1107.975586	1486.397095
1106.864258	1249.743042
1105.751953	1353.561646
1104.639648	2072.983398
1103.527344	2671.214111
1102.414063	2716.457764
1101.301758	2137.497559
1100.188477	1393.283691
1099.075195	998.251099
1097.960938	641.402893
1096.84668	436.705688
1095.732422	343.831482
1094.618164	313.552185
1093.503906	345.824829
1092.388672	411.576508
1091.273438	423.710205
1090.157227	563.065369
1089.041992	825.0896
1087.925781	1247.629639
1086.80957	2104.938721
1085.693359	3546.135254
1084.576172	4937.618164
1083.458984	5053.427246
1082.341797	3910.03125
1081.224609	2608.956055
1080.106445	1651.509399
1078.988281	1157.716675
1077.870117	806.638306
1076.750977	727.28772
1075.632813	681.345398
1074.513672	541.964355
1073.394531	420.432617
1072.274414	405.698639
1071.154297	368.725586
1070.03418	293.967346
1068.914063	288.128571
1067.793945	308.944366
1066.672852	243.102249
1065.551758	246.127563
1064.429688	260.241791
1063.308594	261.016296
1062.186523	321.702667
1061.064453	484.418457
1059.942383	784.588013
1058.819336	1510.445923
1057.696289	2189.391846
1056.573242	2056.628662
1055.450195	1400.843506
1054.326172	805.173279
1053.202148	577.512573
1052.078125	425.246155
1050.953125	270.820221
1049.829102	238.210403
1048.704102	176.826828
1047.578125	146.435486
1046.453125	93.917892
1045.327148	118.82225
1044.201172	121.58532
1043.075195	66.849266
1041.948242	78.430931
1040.821289	54.633419
1039.694336	30.829504
1038.567383	4.810318
1037.439453	33.992794
1036.311523	-20.750891
1035.183594	23.839321
1034.055664	2.188626
1032.926758	51.130062
1031.797852	14.007142
1030.668945	-7.680327
1029.539063	-9.533237
1028.40918	26.067909
1027.279297	-11.088129
1026.149414	6.834419
1025.018555	9.311593
1023.888672	-1.444421
1022.757813	7.601229
1021.625977	-9.789775
1020.495117	8.01882
1019.363281	32.401207
1018.230469	-4.836477
1017.098633	-0.292266
1015.96582	4.231259
1014.833008	19.724506
1013.700195	-21.946342
1012.567383	28.662167
1011.433594	13.330405
1010.299805	4.575335
1009.166016	-8.585564
1008.03125	-32.734341
1006.896484	8.946902
1005.761719	-13.037818
1004.626953	-39.417942
1003.491211	-57.032001
1002.355469	-19.842272
1001.219727	-13.37667
1000.083008	-13.506801
998.947266	30.165895
997.810547	1.512932
996.672852	-7.43445
995.536133	-25.153345
994.398438	-34.125641
993.260742	-3.718176
992.123047	-3.974006
990.984375	-19.559458
989.845703	-15.471854
988.707031	25.767122
987.568359	5.763144
986.428711	5.420869
985.289063	2.877451
984.149414	19.979088
983.008789	-2.254475
981.868164	-24.493523
980.727539	-13.993921
979.586914	20.492098
978.446289	17.854275
977.304688	-28.425987
976.163086	12.536783
975.020508	-27.209286
973.87793	-10.27399
972.736328	6.639668
971.592773	-67.982315
970.450195	20.795393
969.306641	15.869498
968.163086	-32.614616
967.019531	1.631486
965.875	-7.678543
964.730469	-6.117508
963.585938	-32.848873
962.441406	-20.432701
961.295898	-8.034485
960.150391	-15.217886
959.004883	-26.755791
957.859375	20.366726
956.712891	-17.263809
955.566406	10.266834
954.418945	3.033299
953.272461	15.330961
952.125	1.569375
950.977539	0.823641
949.829102	10.915049
948.681641	10.149783
947.533203	20.217161
946.384766	15.097466
945.235352	18.64068
944.085938	13.50771
942.936523	23.533529
941.787109	24.884724
940.636719	28.393188
939.487305	73.023933
938.335938	61.356819
937.185547	51.853642
936.03418	87.776024
934.882813	110.700089
933.731445	27.660864
932.580078	37.608429
931.427734	32.417942
930.275391	48.832512
929.12207	-16.851784
927.969727	16.836479
926.816406	-18.588282
925.663086	23.712229
924.508789	-13.862231
923.354492	41.357292
922.200195	-0.522828
921.045898	5.060722
919.891602	-36.795055
918.736328	24.836853
917.581055	28.250246
916.424805	66.134338
915.269531	99.692337
914.113281	152.615891
912.956055	145.22673
911.799805	155.062469
910.642578	147.67627
909.485352	101.5653
908.328125	100.649384
907.169922	69.6259
906.011719	23.567492
904.853516	29.121666
903.695313	-25.49925
902.536133	-30.676554
901.376953	22.147972
900.217773	-68.936501
899.057617	-35.447697
897.897461	-49.196316
896.737305	-41.475567
895.577148	11.300524
894.416016	19.008293
893.254883	31.004419
892.09375	79.446449
890.931641	127.86824
889.769531	182.699661
888.607422	220.368668
887.445313	206.615234
886.282227	130.767654
885.119141	108.484589
883.956055	69.091805
882.792969	59.681419
881.628906	73.813263
880.464844	25.911884
879.300781	-0.577981
878.135742	11.431767
876.970703	-6.484537
875.805664	24.762094
874.640625	45.315968
873.474609	10.328797
872.308594	47.967983
871.142578	100.538391
869.975586	136.0121
868.808594	233.357788
867.641602	200.521606
866.474609	376.733368
865.306641	572.057434
864.138672	1151.041382
862.970703	1787.304565
861.801758	2197.392578
860.632813	1987.336792
859.463867	1453.635986
858.294922	1041.567871
857.125	676.533386
855.955078	394.682953
854.785156	266.178467
853.614258	129.227859
852.443359	41.263805
851.272461	85.181122
850.101563	31.289223
848.929688	-35.32732
847.757813	10.70931
846.585938	35.482578
845.414063	0.777554
844.241211	10.681436
843.068359	-2.769311
841.894531	11.378288
840.72168	72.202217
839.547852	46.02177
838.374023	113.172874
837.199219	67.912918
836.024414	94.750153
834.849609	110.978096
833.674805	135.673645
832.499023	139.173141
831.323242	146.906082
830.147461	76.292412
828.970703	166.591202
827.794922	220.868332
826.618164	372.446411
825.44043	507.027252
824.263672	688.068909
823.085938	1152.343018
821.907227	2168.104492
820.729492	3098.8479
819.550781	2755.105957
818.37207	1663.757813
817.193359	832.678955
816.013672	413.698792
814.833984	248.212082
813.654297	188.31514
812.473633	208.614014
811.293945	258.428436
810.112305	217.532761
808.931641	199.842102
807.75	161.074387
806.568359	166.571655
805.386719	222.62236
804.205078	343.934387
803.022461	383.053375
801.839844	537.937317
800.65625	835.865356
799.473633	1375.638428
798.290039	2316.97168
797.105469	3951.937256
795.921875	6015.086426
794.737305	6775.915039
793.552734	5478.70459
792.367188	3711.407715
791.182617	2119.309082
789.99707	1334.4729
788.810547	951.059814
787.625	664.385925
786.438477	489.072021
785.251953	374.67981
784.064453	275.013123
782.87793	160.7005
781.69043	126.106682
780.501953	76.841026
779.314453	61.118561
778.125977	9.768894
776.9375	17.083908
775.748047	-30.071447
774.558594	-26.96768
773.369141	-48.999588
772.179688	50.346432
770.989258	-17.75448
769.798828	-6.349652
768.608398	-1.239342
767.417969	-8.691442
766.226563	-9.885295
765.035156	-13.183667
763.842773	48.271461
762.651367	32.39711
761.458984	41.573666
760.265625	42.378281
759.073242	84.914131
757.879883	56.462101
756.686523	211.603012
755.492188	306.165253
754.298828	577.918945
753.104492	949.597229
751.90918	1623.305786
750.714844	2117.471191
749.519531	1807.227783
748.324219	1247.182129
747.12793	739.447388
745.931641	396.405151
744.735352	215.856216
743.539063	149.825577
742.341797	127.49942
741.144531	96.852509
739.947266	97.398262
738.75	72.986603
737.551758	61.044537
736.353516	71.953812
735.154297	-6.478036
733.955078	29.343704
732.755859	-13.760928
731.556641	28.255978
730.357422	18.361851
729.157227	-3.984538
727.956055	-7.65861
726.755859	-21.704384
725.554688	49.257607
724.353516	35.195034
723.152344	93.668037
721.950195	179.043488
720.748047	208.450043
719.545898	266.833862
718.342773	350.03299
717.139648	443.542664
715.936523	491.483795
714.733398	678.018982
713.529297	754.844238
712.325195	858.520325
711.121094	1057.251831
709.916016	1361.304932
708.710938	1762.340088
707.505859	2648.673828
706.299805	4965.900879
705.094727	10581.71289
703.887695	20146.07422
702.681641	24426.41211
701.474609	18517.72266
700.267578	10588.19043
699.060547	5754.031738
697.852539	3615.067383
696.645508	2639.790527
695.436523	1708.283081
694.228516	1222.300171
693.019531	802.493774
691.810547	527.076782
690.601563	420.653931
689.391602	308.13681
688.181641	280.081604
686.97168	206.809937
685.760742	174.747116
684.549805	163.301178
683.338867	137.50766
682.126953	130.265121
680.916016	199.102127
679.704102	144.680542
678.491211	156.05658
677.279297	140.779053
676.066406	193.30484
674.852539	231.487091
673.639648	275.858673
672.425781	346.930695
671.211914	420.073822
669.99707	612.166565
668.782227	720.173645
667.567383	717.51355
666.352539	581.728516
665.136719	552.594238
663.920898	480.528503
662.705078	494.558899
661.488281	394.013855
660.272461	369.306976
659.054688	332.404419
657.837891	340.591614
656.620117	314.079773
655.402344	396.015106
654.18457	488.204224
652.96582	1154.671265
651.74707	2893.515381
650.52832	5875.537598
649.308594	7375.668945
648.088867	5443.200195
646.869141	2566.703369
645.648438	1187.454712
644.428711	706.608765
643.208008	538.139404
641.986328	322.930695
640.764648	177.218887
639.542969	76.495491
638.321289	67.594009
637.098633	50.627136
635.876953	52.074375
634.65332	8.803849
633.430664	-14.014627
632.207031	-4.18292
630.983398	-8.525825
629.758789	-4.656415
628.535156	-43.428696
627.310547	-59.746838
626.084961	25.648033
624.860352	5.386481
623.634766	-12.770385
622.408203	1.642136
621.182617	28.285934
619.956055	18.425781
618.729492	-27.917322
617.501953	0.892817
616.275391	-6.791201
615.047852	22.076319
613.819336	59.074467
612.59082	35.260666
611.362305	33.774155
610.133789	52.566517
608.905273	0.453036
607.675781	82.043274
606.445313	90.695183
605.21582	18.352421
603.985352	95.794769
602.754883	74.023705
601.524414	106.844269
600.292969	80.953674
599.061523	125.786629
597.829102	113.932304
596.597656	85.836357
595.365234	92.014709
594.131836	104.150642
592.899414	221.178726
591.666016	374.367035
590.432617	547.525757
589.198242	595.329956
587.964844	461.362549
586.729492	301.055298
585.495117	235.400894
584.259766	232.05806
583.024414	190.184235
581.789063	180.316788
580.552734	190.3255
579.316406	181.907288
578.080078	209.422272
576.842773	194.309677
575.606445	174.81929
574.368164	108.67231
573.130859	66.289513
571.892578	101.926659
570.654297	52.636341
569.416016	16.95248
568.176758	26.988831
566.9375	30.445023
565.698242	21.269058
564.458008	-20.64889
563.217773	-37.089352
561.977539	-10.039639
560.736328	-15.830973
559.495117	-66.508598
558.253906	2.398203
557.012695	-17.790112
555.770508	-20.802174
554.52832	-48.776211
553.285156	2.452612
552.041992	2.571386
550.798828	-10.374502
549.555664	119.763657