#Wave		#Intensity
1678.89356	5.26316E-7
1677.90527	1178.57891
1676.91699	2981.07685
1675.92871	4052.40806
1674.93945	4865.32901
1673.95019	6124.86489
1672.96094	6514.09803
1671.97168	7574.62434
1670.98242	8075.1486
1669.99219	8447.77864
1669.00195	8681.24184
1668.01172	9441.57181
1667.02148	10058.48691
1666.03027	9144.63205
1665.03906	9995.85635
1664.04883	9954.60944
1663.05664	10002.01898
1662.06543	10632.2441
1661.07324	10408.56606
1660.08203	10761.6006
1659.08984	11102.85882
1658.09766	10979.64028
1657.10449	10416.26754
1656.11231	11064.99081
1655.11914	10636.92749
1654.12598	11098.24328
1653.13184	10931.09895
1652.13867	10505.1337
1651.14453	10465.09566
1650.15039	9754.03172
1649.15625	9819.05742
1648.16211	9410.97149
1647.16699	8644.6413
1646.17285	9077.12383
1645.17773	9008.5126
1644.18164	7635.55054
1643.18652	7758.29468
1642.19043	6815.28789
1641.19531	6796.52813
1640.19922	6158.86982
1639.20215	5547.28727
1638.20606	5259.85049
1637.20898	5010.82552
1636.21191	4087.08502
1635.21484	4150.15606
1634.21777	4063.32526
1633.21973	3314.00089
1632.22266	3456.35594
1631.22461	3115.74431
1630.22656	2875.15528
1629.22754	2578.47277
1628.22949	1759.63385
1627.23047	1684.42569
1626.23144	1219.88005
1625.23144	964.3484
1624.23242	689.71127
1623.23242	498.82812
1622.23242	830.09553
1621.23242	624.98554
1620.23242	263.04331
1619.23242	-363.81891
1618.23144	-346.72132
1617.23047	-457.42159
1616.22949	69.74523
1615.22754	-291.85608
1614.22656	13.78717
1613.22461	347.00227
1612.22266	30.54173
1611.2207	301.50606
1610.21777	778.8172
1609.21484	947.50867
1608.21289	277.90794
1607.20898	741.49832
1606.20606	779.5572
1605.20313	685.21034
1604.19922	434.69987
1603.19531	494.13131
1602.19141	766.15343
1601.18652	1533.47611
1600.18262	878.20287
1599.17773	798.1029
1598.17285	1309.53555
1597.16699	1126.22295
1596.16211	1552.1927
1595.15625	1583.48344
1594.15039	1600.47048
1593.14453	1634.35039
1592.13867	1600.40135
1591.13184	1402.63151
1590.125	1598.51774
1589.11816	1929.97719
1588.11133	1453.32282
1587.10449	2282.53758
1586.09668	2367.69974
1585.08887	2886.97426
1584.08106	3453.06287
1583.07324	3861.68438
1582.06445	4611.7368
1581.05664	5990.84916
1580.04785	5525.92471
1579.03906	6041.15498
1578.0293	7096.72858
1577.02051	8476.6633
1576.01074	8388.4535
1575.00098	8938.52905
1573.99023	9213.40364
1572.98047	9843.51466
1571.96973	9375.10491
1570.95898	10199.10368
1569.94824	10395.71861
1568.9375	11011.05886
1567.92578	10621.79899
1566.91504	11658.09422
1565.90332	12506.84834
1564.89063	13054.64747
1563.87891	12965.16351
1562.86621	13906.76713
1561.85352	15262.33456
1560.84082	16555.12445
1559.82813	17566.27576
1558.81445	19328.63185
1557.80176	20866.07223
1556.78809	22414.73588
1555.77441	23375.02165
1554.75977	24517.47025
1553.74609	25401.31894
1552.73144	26027.47848
1551.7168	25724.70298
1550.70117	26023.64007
1549.68652	26366.11746
1548.6709	24849.11293
1547.65527	24352.92255
1546.63965	23765.13884
1545.62402	23164.22395
1544.60742	22043.32346
1543.59082	20351.95627
1542.57422	19287.79303
1541.55762	18971.27576
1540.54004	17299.68654
1539.52344	16906.95627
1538.50586	15815.46162
1537.48828	15621.90487
1536.46973	15865.46265
1535.45215	14783.52802
1534.43359	15712.29139
1533.41504	15754.34628
1532.39648	16523.12609
1531.37695	17896.66844
1530.3584	17874.33292
1529.33887	18839.47272
1528.31934	20015.24369
1527.29883	21423.43859
1526.2793	21682.65323
1525.25879	22661.58621
1524.23828	23825.6816
1523.21777	24687.99862
1522.19629	25045.37527
1521.17578	25544.78727
1520.1543	25793.24328
1519.13281	26813.4941
1518.11035	27170.58497
1517.08887	26293.55372
1516.06641	27302.07963
1515.04394	27409.91063
1514.02148	26752.6265
1512.99805	26428.81894
1511.97559	26980.67954
1510.95215	26581.14829
1509.92871	25985.21696
1508.9043	25050.3691
1507.88086	24125.52741
1506.85644	23055.61992
1505.83203	21821.78563
1504.80762	19917.47642
1503.78223	18579.82428
1502.75781	17151.94702
1501.73242	15927.66042
1500.70703	13370.33415
1499.68066	11771.85348
1498.65527	10496.76713
1497.62891	9589.30825
1496.60254	7492.41731
1495.57617	6866.51116
1494.54883	6360.45185
1493.52246	5259.69219
1492.49512	4058.67476
1491.46777	2955.49811
1490.43945	2628.6943
1489.41211	2030.51391
1488.38379	1648.40595
1487.35547	1947.77504
1486.32715	920.0656
1485.29785	1088.54344
1484.26953	1205.14989
1483.24023	160.53083
1482.21094	242.29034
1481.18066	97.44081
1480.15137	220.20003
1479.12109	9.51229
1478.09082	-600.73242
1477.06055	-375.4515
1476.0293	-457.47395
1474.99805	324.00827
1473.96777	-152.17908
1472.93555	477.84979
1471.9043	8.96058
1470.87207	-150.67824
1469.84082	-459.20928
1468.80859	-73.37896
1467.77539	458.06371
1466.74316	318.25051
1465.70996	673.12815
1464.67676	821.48521
1463.64356	809.78201
1462.61035	1724.11974
1461.57617	1992.73135
1460.54199	2905.57264
1459.50781	3210.97406
1458.47363	2948.02586
1457.43848	4008.16001
1456.40332	4463.84669
1455.36816	4948.54293
1454.33301	6179.32623
1453.29785	6353.09525
1452.26172	6070.91084
1451.22559	6863.09063
1450.18945	6469.65056
1449.15332	7205.27864
1448.11621	7125.07202
1447.0791	7111.15292
1446.04199	6828.70946
1445.00488	7095.34957
1443.96777	6847.30012
1442.92969	6084.94507
1441.8916	5813.67759
1440.85352	5886.20997
1439.81543	5374.22241
1438.77637	4614.98105
1437.73731	4976.20329
1436.69824	4412.23742
1435.65918	3680.93576
1434.61914	3618.89937
1433.5791	3240.82269
1432.54004	2915.03244
1431.49902	2215.59114
1430.45898	2511.50474
1429.41797	1792.90803
1428.37695	1686.02931
1427.33594	1687.03658
1426.29492	1386.96668
1425.25293	879.14743
1424.21094	324.88779
1423.16894	946.16448
1422.12695	1019.65852
1421.08496	1378.69622
1420.04199	729.14679
1418.99902	658.92925
1417.95606	440.36788
1416.91211	299.65672
1415.86914	198.10712
1414.82519	607.04789
1413.78125	241.59605
1412.73731	761.44538
1411.69238	336.0402
1410.64746	-31.52085
1409.60254	51.40016
1408.55762	523.14813
1407.51172	-80.75134
1406.4668	-17.12238
1405.4209	-49.62468
1404.375	-178.64129
1403.32813	-251.89015
1402.28223	-852.0635
1401.23535	-426.42874
1400.18848	418.72709
1399.14063	41.8018
1398.09375	-95.29181
1397.0459	-267.42315
1395.99805	104.06965
1394.95019	137.41049
1393.90137	424.74494
1392.85352	259.42765
1391.80469	265.79872
1390.75586	144.73515
1389.70606	500.86532
1388.65723	687.30514
1387.60742	-18.84026
1386.55762	181.91809
1385.50684	-88.76851
1384.45703	644.474
1383.40625	-233.10402
1382.35547	373.32356
1381.30469	609.3527
1380.25293	265.17186
1379.20117	325.97794
1378.14941	-116.22225
1377.09766	191.69511
1376.0459	8.08276
1374.99316	176.35504
1373.94043	86.38169
1372.88769	-416.58075
1371.83496	-61.55353
1370.78125	103.89348
1369.72754	896.04749
1368.67383	976.39269
1367.62012	255.32634
1366.56641	1154.41168
1365.51172	2208.53393
1364.45703	1930.95131
1363.40234	2038.23904
1362.34668	1846.40361
1361.29199	2302.67662
1360.23633	1866.4775
1359.17969	1468.16592
1358.12402	1344.26134
1357.06738	838.84958
1356.01172	756.72453
1354.95508	435.33543
1353.89746	325.59371
1352.84082	9.73745
1351.7832	-183.07693
1350.72559	68.08176
1349.66797	25.24384
1348.60938	-30.23813
1347.55078	403.24321
1346.49219	-64.91853
1345.43359	-336.20333
1344.375	-722.55346
1343.31543	-868.77609
1342.25586	-241.24965
1341.19629	247.50281
1340.13672	25.13729
1339.07617	205.29082
1338.01563	-268.32043
1336.95508	676.85566
1335.89453	749.5865
1334.83301	1207.20054
1333.77148	904.13298
1332.70996	1716.16924
1331.64844	3140.2275
1330.58594	2733.92353
1329.52441	3467.92615
1328.46191	3753.51003
1327.39941	3671.1154
1326.33594	4401.53943
1325.27246	5031.44486
1324.20898	4763.54396
1323.14551	5704.6927
1322.08203	7091.00438
1321.01758	7249.15816
1319.95313	7146.44795
1318.88867	7020.01908
1317.82422	8720.33723
1316.75879	9534.87876
1315.69336	9815.37424
1314.62793	10088.55167
1313.5625	11062.74883
1312.49609	11235.18612
1311.43066	12134.65672
1310.36426	12417.08682
1309.29688	11637.47745
1308.23047	11353.233
1307.16309	12023.51877
1306.0957	11641.94291
1305.02832	9928.67605
1303.95996	9485.29509
1302.89258	8200.85687
1301.82422	7708.28645
1300.75586	7718.70329
1299.68652	6587.55866
1298.61816	6211.18016
1297.54883	4566.97066
1296.47949	4643.71306
1295.40918	4172.70463
1294.33984	3843.53239
1293.26953	2810.18175
1292.19922	1998.52365
1291.12793	2179.68191
1290.05762	2394.39922
1288.98633	1558.29236
1287.91504	1269.41939
1286.84375	747.1059
1285.77148	1129.9849
1284.69922	881.21813
1283.62695	305.50659
1282.55469	960.95478
1281.48144	718.76799
1280.40918	478.06894
1279.33594	1255.12226
1278.26172	1039.69739
1277.18848	1627.49582
1276.11426	2262.32659
1275.04004	1998.39053
1273.96582	3042.15775
1272.8916	2523.84721
1271.81641	3055.6153
1270.74121	4006.30557
1269.66602	4317.12229
1268.58984	4426.70596
1267.51465	4574.64542
1266.43848	5308.72796
1265.36231	6102.29139
1264.28516	6158.6853
1263.20898	6225.78902
1262.13184	6445.74276
1261.05469	7098.5712
1259.97656	7867.31503
1258.89941	8143.96799
1257.82129	8952.29344
1256.74316	8349.93941
1255.66504	8879.96408
1254.58594	9194.44188
1253.50684	9789.4059
1252.42773	9903.75006
1251.34863	10051.94805
1250.26856	10034.46552
1249.18945	10551.69517
1248.10938	10102.20401
1247.02832	9763.18057
1245.94824	9909.94764
1244.86719	10049.11807
1243.78613	9462.72005
1242.70508	9518.2844
1241.62305	9114.1263
1240.54102	8528.24225
1239.45898	8190.69651
1238.37695	7887.4903
1237.29492	7627.02772
1236.21191	7654.55033
1235.12891	7009.33703
1234.0459	7092.78584
1232.96191	6179.10265
1231.87891	6048.50952
1230.79492	5494.2882
1229.70996	5548.93869
1228.62598	5676.15549
1227.54102	4993.67708
1226.45606	5078.13894
1225.37109	4649.41207
1224.28613	4503.4535
1223.20019	4168.28568
1222.11426	3793.37614
1221.02832	3706.87147
1219.94238	2956.1208
1218.85547	2796.06991
1217.76856	2325.27915
1216.68164	2287.71953
1215.59375	1669.03468
1214.50684	1368.02689
1213.41894	1202.97408
1212.33106	1028.95797
1211.24219	1040.0415
1210.1543	89.43038
1209.06543	291.21842
1207.97656	307.97048
1206.88672	158.64028
1205.79785	23.84885
1204.70801	163.76773
1203.61816	757.07262
1202.52734	698.32301
1201.43652	424.55457
1200.34668	915.49136
1199.25488	660.02461
1198.16406	451.82919
1197.07227	300.85468
1195.98144	-296.9936
1194.88867	-168.24516
1193.79688	57.78238
1192.7041	534.95034
1191.61231	232.37393
1190.51856	67.8465
1189.42578	-405.90731
1188.33203	-121.6006
1187.23828	-705.49182
1186.14453	-399.48933
1185.05078	-465.48401
1183.95606	141.14971
1182.86133	-247.42918
1181.7666	59.55617
1180.67188	-16.63103
1179.57617	55.0446
1178.48047	145.67805
1177.38477	13.66582
1176.28906	386.67358
1175.19238	-307.40967
1174.0957	256.4147
1172.99902	353.73522
1171.90234	849.10535
1170.80469	902.81025
1169.70703	1427.19823
1168.60938	1700.91341
1167.51172	1750.35612
1166.41309	2267.28625
1165.31445	2629.6999
1164.21582	3598.01379
1163.11719	4366.93931
1162.01758	4579.66906
1160.91797	4917.60235
1159.81836	5582.02463
1158.71777	6358.99523
1157.61816	6759.23166
1156.51758	7270.87023
1155.41699	7772.27648
1154.31543	7806.48598
1153.21387	8651.79077
1152.11231	9946.54817
1151.01074	10321.95422
1149.90918	9926.08662
1148.80664	10755.22416
1147.7041	11240.5788
1146.60156	11584.40282
1145.49805	11691.85142
1144.39551	11589.02144
1143.29199	11465.69291
1142.1875	11289.80681
1141.08398	11709.38843
1139.97949	11473.30804
1138.875	11368.6226
1137.77051	11359.08209
1136.66504	11192.66556
1135.56055	11658.47251
1134.45508	11553.56914
1133.34863	10958.35635
1132.24316	10738.63596
1131.13672	10702.99348
1130.03027	10908.10245
1128.92383	10672.95031
1127.81641	10647.25644
1126.70898	10653.31112
1125.60156	10743.17441
1124.49414	10372.61314
1123.38574	10878.57634
1122.27832	10785.77617
1121.16894	11167.09916
1120.06055	10979.60224
1118.95117	10791.01055
1117.84277	10985.83682
1116.73242	11175.35471
1115.62305	10822.75911
1114.51269	10664.06565
1113.40332	9965.50274
1112.29199	10432.2441
1111.18164	10180.98999
1110.07031	10806.52658
1108.95898	10469.12013
1107.84766	10205.255
1106.73633	9946.55845
1105.62402	10103.78501
1104.51172	10947.67276
1103.39941	11521.27782
1102.28613	12162.24616
1101.17383	11527.66556
1100.06055	12594.37815
1098.94629	12374.26199
1097.83301	12324.32161
1096.71875	12063.93612
1095.60449	11745.58806
1094.49023	11566.90179
1093.375	11193.96799
1092.25977	10604.62486
1091.14453	10517.01178
1090.0293	9954.61047
1088.91309	10064.67523
1087.79785	10003.11581
1086.68164	9973.17646
1085.56445	10850.47498
1084.44824	10982.82181
1083.33106	11875.95401
1082.21289	11859.7513
1081.0957	12165.59114
1079.97754	12595.72478
1078.85938	12489.66289
1077.74121	12058.15076
1076.62305	11724.97848
1075.50391	10588.22169
1074.38477	9821.85553
1073.26563	9483.63493
1072.14551	8562.56225
1071.02637	7986.53172
1069.90625	7684.54416
1068.78516	7285.65076
1067.66504	6899.35245
1066.54394	5988.41392
1065.42285	6275.63894
1064.30078	6334.49174
1063.17969	6397.72467
1062.05762	6265.59782
1060.93555	7032.56894
1059.81348	6795.52638
1058.69043	7460.7772
1057.56738	7891.68592
1056.44434	7909.93376
1055.32031	8484.02299
1054.19727	8778.04488
1053.07324	9420.66001
1051.94824	9871.95422
1050.82422	10073.27823
1049.69922	11023.35738
1048.57422	10462.43736
1047.44922	10065.14706
1046.32324	9769.11499
1045.19727	9048.16001
1044.07129	9242.1742
1042.94531	7963.53933
1041.81836	7938.28131
1040.69238	7259.4244
1039.56445	6769.25068
1038.4375	5919.00602
1037.30957	5080.28275
1036.18164	4719.65261
1035.05371	3471.25469
1033.92578	3675.98562
1032.79688	3324.67291
1031.66797	2432.24718
1030.53906	2919.92399
1029.40918	1936.97645
1028.2793	1785.46868
1027.14941	1760.85738
1026.01953	1326.78139
1024.88867	553.12204
1023.75879	272.88799
1022.62695	412.75898
1021.49609	-297.79214
1020.36426	-40.92793
1019.23242	-104.9106
1018.10059	-84.32321
1016.96875	-165.54254
1015.83594	88.36169
1014.70313	102.19514
1013.57031	70.4499
1012.43652	535.52548
1011.30273	607.4682
1010.16895	1320.46277
1009.03516	1403.53715
1007.90039	1906.15536
1006.7666	2919.84895
1005.63086	4003.19137
1004.49609	4995.641
1003.36035	6433.43396
1002.22461	6548.97621
1001.08887	6571.2881
999.95313	6675.77052
998.81641	5662.53913
997.67969	5276.07994
996.54297	5602.41474
995.40527	4776.58672
994.26758	5117.92615
993.12988	5140.93962
991.99219	4670.80701
990.85352	4609.94815
989.71484	4490.13473
988.57617	4404.05999
987.4375	4073.85748
986.29785	3907.4574
985.1582	3846.65508
984.01855	4275.92446
982.87793	4401.28861
981.7373	3900.01317
980.59668	4325.7957
979.45605	4431.74091
978.31445	4146.90719
977.17285	4710.85378
976.03125	4440.86766
974.88965	5121.94959
973.74707	5431.79334
972.60449	5848.32089
971.46191	7042.30321
970.31836	6721.97734
969.17578	6746.29375
968.03223	7457.16495
966.8877	8284.67883
965.74414	8779.61869
964.59961	8732.75808
963.45508	9641.88843
962.30957	8942.99348
961.16406	10445.54694
960.01855	10482.8763
958.87305	11010.78337
957.72754	11450.24883
956.58105	11310.3177
955.43457	12141.26034
954.28809	12722.461
953.14063	13397.44558
951.99316	13766.84936
950.8457	13810.86047
949.69727	14570.40714
948.5498	14108.94024
947.40137	14410.76692
946.25293	14866.00541
945.10352	14579.17769
943.9541	15096.47724
942.80469	14754.46141
941.65527	14305.97765
940.50488	14131.76199
939.35449	14033.25356
938.2041	13457.95134
937.05371	12175.52741
935.90234	11553.28851
934.75098	10760.88411
933.59961	9517.89377
932.44727	8535.13627
931.29492	7349.39665
930.14258	6105.18869
928.99023	4720.65025
927.83691	3190.80213
926.68359	2095.17482
925.53027	1798.67541
924.37598	929.24978
923.22266	1000.26496
922.06836	-151.03593
920.91309	53.8383
919.75879	201.52866
918.60352	112.90342
917.44824	-317.45609
916.29199	-442.93017
915.13672	119.2927
913.98047	-38.3675
912.82324	10.36786
911.66699	-60.53524
910.50977	155.14011
909.35254	-24.59993
908.19531	-251.96948
907.03711	422.14002
905.87891	613.07289
904.7207	277.54687
903.56152	603.01642
902.40332	1.7664
901.24414	-95.89907
900.08398	-166.24001
898.9248	256.1436
897.76465	-70.61071
896.60449	182.7577
895.44336	130.55886
894.2832	-459.70822
893.12207	166.93062
891.95996	625.5923
890.79883	1078.13483
889.63672	1755.84363
888.47461	2077.19386
887.31152	2916.70648
886.14941	2938.29982
884.98633	3554.5033
883.82324	4798.05156
882.65918	5075.95607
881.49512	5722.59309
880.33105	6847.99246
879.16699	6536.77484
878.00195	5933.74595
876.83691	6205.0751
875.67188	5488.75058
874.50684	4824.98002
873.34082	3866.93186
872.1748	3408.79606
871.00781	3201.33898
869.8418	2756.2056
868.6748	1890.53936
867.50781	2013.75546
866.33984	1728.11555
865.17285	1465.38131
864.00488	1356.28257
862.83594	1586.91554
861.66797	1541.27653
860.49902	1665.8543
859.33008	1704.91256
858.16016	1957.75076
856.99121	1953.5978
855.82129	1912.78417
854.65039	1913.15179
853.48047	2029.12475
852.30957	2079.28499
851.13867	2280.24549
849.9668	2598.32038
848.7959	2767.77993
847.62402	3462.52859
846.45117	3789.97565
845.2793	3918.07418
844.10645	4483.4206
842.93359	5190.75202
841.75977	4496.26651
840.58691	4945.51096
839.41309	4568.75212
838.23926	4497.34278
837.06445	4764.54776
835.88965	4537.85933
834.71484	4450.67183
833.54004	4502.34895
832.36426	4264.68448
831.18848	4267.38853
830.0127	4137.0105
828.83594	4809.49739
827.65918	4506.65765
826.48242	4168.53214
825.30566	4524.94147
824.12793	4248.67708
822.9502	4443.01404
821.77246	4065.8047
820.59375	4221.92261
819.41602	3689.03738
818.2373	3664.39125
817.05762	3789.78728
815.87793	4215.76949
814.69824	3810.69239
813.51855	4139.03866
812.33887	3900.05429
811.1582	3594.27664
809.97754	3025.41947
808.7959	3204.53954
807.61523	2549.32084
806.43359	2218.79015
805.25098	2271.53378
804.06934	2046.73847
802.88672	1191.04768
801.7041	1548.23672
800.52051	1045.93229
799.33789	744.79119
798.1543	726.0489
796.96973	-98.03105
795.78613	155.80997
794.60156	182.29751
793.41699	-222.94328
792.23145	-279.3255
791.04688	13.61498
789.86035	64.20118
788.6748	25.31744
787.48926	34.62614
786.30273	34.15101
785.11523	-301.26096
783.92871	-133.73909
782.74121	-292.62088
781.55371	526.85656
780.36621	209.07906
779.17773	68.0597
777.98926	748.91293
776.80078	1060.43271
775.6123	844.24997
774.42285	1182.92731
773.2334	1246.06452
772.04297	1481.64596
770.85352	1383.14267
769.66309	1828.26589
768.47168	2264.17615
767.28125	2779.60455
766.08984	2521.37419
764.89844	2430.53435
763.70605	2064.44471
762.51465	2085.75741
761.32227	1823.81585
760.12891	1558.01237
758.93652	1655.35856
757.74316	1023.95668
756.5498	1161.5695
755.35547	946.3616
754.16211	1407.00574
752.9668	928.52288
751.77246	717.77054
750.57715	1099.80321
749.38281	865.95517
748.18652	656.95344
746.99121	350.60299
745.79492	448.87907
744.59863	691.36674
743.40137	807.56135
742.20508	493.70866
741.00781	443.12079
739.81055	240.32781
738.6123	94.47254
737.41406	546.98929
736.21582	-33.58441
735.0166	4.47648
733.81836	29.41804
732.61914	-126.34734
731.41895	145.31088
730.21973	130.21598
729.01953	-260.28871
727.81934	-675.5373
726.61816	-548.41299
725.41699	45.88861
724.21582	-102.2899
723.01465	-114.9539
721.8125	41.12794
720.61035	328.68209
719.4082	276.20782
718.20508	1251.52119
717.00195	1188.85479
715.79883	1645.81344
714.5957	1629.50407
713.3916	1591.53494
712.1875	2853.02201
710.98242	2797.91279
709.77832	3148.86879
708.57324	3601.25829
707.36719	4065.79185
706.16211	4155.7055
704.95605	5397.78275
703.75	5372.99862
702.54297	5874.58991
701.33691	6029.24451
700.12988	6879.63976
698.92188	7225.23495
697.71484	8323.17132
696.50684	8645.49657
695.29785	9918.35533
694.08984	10176.23156
692.88086	10851.09484
691.67188	11759.15714
690.46289	12973.80146
689.25293	13423.35121
688.04297	14251.24801
686.83301	15483.58662
685.62207	16756.84834
684.41113	18118.82099
683.2002	18956.27165
681.98828	20537.39829
680.77637	21929.57346
679.56445	23624.69065
678.35254	25492.06112
677.13965	26450.73711
675.92676	27204.40899
674.71387	27114.01425
673.5	26240.56647
672.28613	24857.39624
671.07227	23514.06154
669.8584	22829.18489
668.64355	21908.83538
667.42871	21597.3469
666.21289	21223.92996
664.99805	20629.0307
663.78223	20538.23094
662.56543	20618.41392
661.34961	20744.99698
660.13281	20005.0751
658.91602	19870.87691
657.69824	20165.2293
656.48047	20403.55989
655.2627	20536.10718
654.04492	20409.31852
652.82617	19774.73588
651.60742	19824.75232
650.38867	19892.59155
649.16895	20218.20216
647.94922	20547.91639
646.72949	21664.5344
645.50879	22123.24533
644.28809	22653.70997
643.06738	23856.14213
641.84668	24308.80249
640.625	25075.75973
639.40332	26885.83991
638.18164	27823.12609
636.95898	28967.08168
635.73633	29753.36869
634.51367	30725.24986
633.29004	30906.77124
632.06641	31306.64994
630.84277	31642.23793
629.61914	31265.01959
628.39453	31259.98464
627.16992	30849.70093
625.94531	31132.36746
624.71973	30561.06811
623.49414	30554.65158
622.26855	29909.75849
621.04199	29647.21532
619.81543	29821.09484
618.58887	29112.0529
617.36133	28735.27247
616.13477	28081.43201
614.90723	28557.77247
613.67871	28026.63966
612.4502	28356.01466
611.22168	27463.96696
609.99316	26534.50973
608.76367	25607.37774
607.53418	24370.37116
606.30469	23825.42872
605.0752	22503.88267
603.84473	21834.44188
602.61426	20594.92502
601.38281	19894.90446
600.15137	19072.30578
598.91992	18409.35759
597.68848	17665.13473
596.45605	16981.56462
595.22363	16187.43016
593.99121	16038.96902
592.75781	14642.16598
591.52441	13941.63041
590.29102	14187.43016
589.05762	13549.37095
587.82324	12636.60163
586.58887	11930.64048
585.35352	11719.64439
584.11816	11136.92543
582.88281	10500.64357
581.64746	9552.84443
580.41113	9454.59813
579.1748	8878.96182
577.93848	7993.63031
576.70117	7597.71799
575.46484	7492.1999
574.22656	6695.97611
572.98926	6392.18397
571.75098	6237.38236
570.5127	5220.08333
569.27344	4908.79992
568.03516	5032.13616
566.7959	3902.79946
565.55566	3574.98027
564.31641	3071.11746
563.07617	2423.54344
561.83496	2009.51384
560.59473	1352.38493
559.35352	798.5471
558.11133	1124.69386
556.87012	105.52746
555.62793	-9.66555
554.38574	-191.53706
553.14355	39.02784
551.90039	-197.5036
550.65723	58.79417
549.41309	55.56386