#Wave		#Intensity
1678.89356	1.7316E-6
1677.90527	2370.02827
1676.91699	4145.9169
1675.92871	6385.69301
1674.93945	8002.42436
1673.95019	8008.87136
1672.96094	9565.83751
1671.97168	10039.02474
1670.98242	10752.06755
1669.99219	11577.40407
1669.00195	12008.41141
1668.01172	12242.65704
1667.02148	13366.52153
1666.03027	12369.09356
1665.03906	13562.21028
1664.04883	13457.60564
1663.05664	14019.49941
1662.06543	14270.81586
1661.07324	14533.82148
1660.08203	14421.33332
1659.08984	14655.93491
1658.09766	13785.5869
1657.10449	14389.81952
1656.11231	14774.80666
1655.11914	13798.77684
1654.12598	14581.98503
1653.13184	14500.90413
1652.13867	13834.60019
1651.14453	13699.94871
1650.15039	12579.63114
1649.15625	12394.72685
1648.16211	12479.48148
1647.16699	11548.98652
1646.17285	11397.70304
1645.17773	11706.24859
1644.18164	9864.19807
1643.18652	9796.41279
1642.19043	9268.76889
1641.19531	9145.71356
1640.19922	7526.91114
1639.20215	7464.92182
1638.20606	7416.62721
1637.20898	7735.48459
1636.21191	5977.03035
1635.21484	5182.74472
1634.21777	5877.65899
1633.21973	4705.19086
1632.22266	4318.64967
1631.22461	3621.78947
1630.22656	3822.05876
1629.22754	2800.96713
1628.22949	2212.6064
1627.23047	2067.86187
1626.23144	1902.27428
1625.23144	2176.56955
1624.23242	1749.93856
1623.23242	1639.84414
1622.23242	1924.33128
1621.23242	1226.48035
1620.23242	1230.85237
1619.23242	-126.56147
1618.23144	-403.12712
1617.23047	-67.67163
1616.22949	-339.88738
1615.22754	-104.36325
1614.22656	-290.41052
1613.22461	167.56478
1612.22266	-819.90563
1611.2207	-649.78221
1610.21777	456.47308
1609.21484	401.75768
1608.21289	-172.75811
1607.20898	-444.04094
1606.20606	153.82539
1605.20313	-367.37629
1604.19922	-567.1061
1603.19531	554.8227
1602.19141	-679.13467
1601.18652	616.72788
1600.18262	142.01779
1599.17773	200.3977
1598.17285	137.72083
1597.16699	41.61661
1596.16211	55.47666
1595.15625	-76.67377
1594.15039	131.07474
1593.14453	82.67756
1592.13867	-1311.29899
1591.13184	-75.70658
1590.125	-222.25638
1589.11816	471.25664
1588.11133	-657.88012
1587.10449	696.54591
1586.09668	619.87661
1585.08887	1309.10536
1584.08106	1614.95321
1583.07324	1765.1313
1582.06445	2888.36355
1581.05664	3631.9009
1580.04785	2906.71003
1579.03906	3496.59289
1578.0293	4495.71144
1577.02051	5643.02315
1576.01074	5625.92105
1575.00098	6342.7974
1573.99023	7076.78008
1572.98047	8181.79226
1571.96973	7982.47627
1570.95898	8668.93376
1569.94824	8259.03201
1568.9375	10028.20561
1567.92578	9852.00921
1566.91504	10848.17314
1565.90332	11274.92757
1564.89063	12517.09309
1563.87891	13442.4482
1562.86621	14556.96305
1561.85352	16518.927
1560.84082	16236.6793
1559.82813	18210.22333
1558.81445	21785.87268
1557.80176	22699.75932
1556.78809	23511.20412
1555.77441	25360.45669
1554.75977	26610.88283
1553.74609	27980.35658
1552.73144	27624.43295
1551.7168	27809.46068
1550.70117	27228.68417
1549.68652	27778.11091
1548.6709	26315.87978
1547.65527	25108.69127
1546.63965	25019.87058
1545.62402	22552.46833
1544.60742	22629.77995
1543.59082	19567.30531
1542.57422	18118.88134
1541.55762	17987.37769
1540.54004	16713.14372
1539.52344	15907.54814
1538.50586	14400.02142
1537.48828	14359.49112
1536.46973	13952.09038
1535.45215	13008.5729
1534.43359	13567.37211
1533.41504	13855.2602
1532.39648	14743.9456
1531.37695	15291.64243
1530.3584	15098.80051
1529.33887	16300.10936
1528.31934	17423.54517
1527.29883	19023.0683
1526.2793	19274.49552
1525.25879	20417.89717
1524.23828	23198.77176
1523.21777	22872.12809
1522.19629	22789.08223
1521.17578	24816.85212
1520.1543	24718.3622
1519.13281	25997.42233
1518.11035	26577.19269
1517.08887	26207.17274
1516.06641	26992.15481
1515.04394	27585.57337
1514.02148	27724.89798
1512.99805	27886.87545
1511.97559	29032.4805
1510.95215	29152.84373
1509.92871	28197.51703
1508.9043	28797.5035
1507.88086	27225.48984
1506.85644	26207.12708
1505.83203	24595.65691
1504.80762	22371.30288
1503.78223	20552.7744
1502.75781	19671.06106
1501.73242	18053.40346
1500.70703	16049.81343
1499.68066	13505.16973
1498.65527	11861.65478
1497.62891	10167.46596
1496.60254	8968.325
1495.57617	7816.50292
1494.54883	6914.75695
1493.52246	5947.36906
1492.49512	4247.48109
1491.46777	3844.16459
1490.43945	2883.38435
1489.41211	2187.04688
1488.38379	2302.70295
1487.35547	2483.17128
1486.32715	1626.90395
1485.29785	1556.81107
1484.26953	1456.9008
1483.24023	671.92882
1482.21094	-329.87391
1481.18066	-267.83682
1480.15137	-380.25521
1479.12109	-517.00665
1478.09082	-1385.54458
1477.06055	-556.6071
1476.0293	-242.92977
1474.99805	202.80302
1473.96777	-372.64389
1472.93555	353.03933
1471.9043	-788.4906
1470.87207	-501.91262
1469.84082	-148.26066
1468.80859	-299.53348
1467.77539	520.81972
1466.74316	271.365
1465.70996	526.73596
1464.67676	455.00131
1463.64356	897.15504
1462.61035	1724.61981
1461.57617	1834.15419
1460.54199	3105.6914
1459.50781	3538.51955
1458.47363	3842.84771
1457.43848	5152.32966
1456.40332	6133.11083
1455.36816	6371.03358
1454.33301	7824.98084
1453.29785	7692.16327
1452.26172	7809.44208
1451.22559	8446.17436
1450.18945	7869.1147
1449.15332	8372.32087
1448.11621	8623.22979
1447.0791	9388.24264
1446.04199	8509.46322
1445.00488	8104.72753
1443.96777	7603.45588
1442.92969	6624.62868
1441.8916	6604.82687
1440.85352	6738.91186
1439.81543	5648.45258
1438.77637	4792.35393
1437.73731	5094.06186
1436.69824	4636.97396
1435.65918	4385.18402
1434.61914	3969.47742
1433.5791	3437.82264
1432.54004	3155.31896
1431.49902	2469.93083
1430.45898	1821.51425
1429.41797	665.20813
1428.37695	1200.02142
1427.33594	1676.31474
1426.29492	986.68416
1425.25293	651.14035
1424.21094	729.6807
1423.16894	71.87089
1422.12695	-3.05284
1421.08496	826.25661
1420.04199	-50.04235
1418.99902	-355.74267
1417.95606	-723.45962
1416.91211	-1300.8912
1415.86914	-761.29418
1414.82519	265.62523
1413.78125	66.94881
1412.73731	-646.21511
1411.69238	-480.29717
1410.64746	-179.52869
1409.60254	-266.89247
1408.55762	-244.86302
1407.51172	-581.64488
1406.4668	-329.22068
1405.4209	-611.52859
1404.375	-555.16905
1403.32813	-1183.36898
1402.28223	-656.74069
1401.23535	-162.45768
1400.18848	546.86371
1399.14063	-556.74058
1398.09375	-509.88754
1397.0459	-330.00161
1395.99805	396.62539
1394.95019	-184.57335
1393.90137	750.83084
1392.85352	415.24919
1391.80469	1236.03713
1390.75586	656.04705
1389.70606	2165.1294
1388.65723	1603.38729
1387.60742	633.61089
1386.55762	1099.21058
1385.50684	748.20897
1384.45703	547.16498
1383.40625	300.94921
1382.35547	634.52034
1381.30469	766.12921
1380.25293	631.30096
1379.20117	1047.47528
1378.14941	160.30603
1377.09766	503.79731
1376.0459	640.95583
1374.99316	302.5218
1373.94043	-123.88863
1372.88769	63.15903
1371.83496	415.05673
1370.78125	405.6904
1369.72754	1273.48218
1368.67383	1413.98743
1367.62012	-149.92705
1366.56641	1730.1173
1365.51172	2300.42896
1364.45703	2879.40919
1363.40234	2682.38094
1362.34668	2246.22868
1361.29199	2884.7471
1360.23633	2226.10727
1359.17969	3158.45727
1358.12402	2312.51276
1357.06738	2580.51786
1356.01172	984.68548
1354.95508	545.62594
1353.89746	1171.89103
1352.84082	-204.13766
1351.7832	-410.78959
1350.72559	-129.58054
1349.66797	-393.99898
1348.60938	-497.64185
1347.55078	-846.9636
1346.49219	-848.07856
1345.43359	-868.71082
1344.375	-1760.74507
1343.31543	-2139.56106
1342.25586	-688.97402
1341.19629	-975.36434
1340.13672	-225.32859
1339.07617	-503.45216
1338.01563	-838.31584
1336.95508	93.38229
1335.89453	408.04239
1334.83301	1144.34922
1333.77148	714.54885
1332.70996	1937.19907
1331.64844	3129.05619
1330.58594	2109.05061
1329.52441	3041.99438
1328.46191	3830.78526
1327.39941	4449.05881
1326.33594	4753.02509
1325.27246	4982.06536
1324.20898	4399.30824
1323.14551	5018.9494
1322.08203	6178.58482
1321.01758	7287.38868
1319.95313	7027.68478
1318.88867	7267.46173
1317.82422	8326.26178
1316.75879	9262.45547
1315.69336	9030.67703
1314.62793	9086.41973
1313.5625	10201.21782
1312.49609	11373.40312
1311.43066	11727.04642
1310.36426	11889.69776
1309.29688	11590.62359
1308.23047	11653.14389
1307.16309	11633.92886
1306.0957	11368.19479
1305.02832	8480.31515
1303.95996	7640.86964
1302.89258	7470.45821
1301.82422	7500.85679
1300.75586	6283.04911
1299.68652	5282.45598
1298.61816	4945.15172
1297.54883	3221.5931
1296.47949	4047.25154
1295.40918	2240.14208
1294.33984	2244.37871
1293.26953	1723.39065
1292.19922	1721.52863
1291.12793	869.37078
1290.05762	1646.11401
1288.98633	539.9688
1287.91504	169.80485
1286.84375	137.74411
1285.77148	640.89389
1284.69922	370.43073
1283.62695	68.66498
1282.55469	716.47455
1281.48144	352.04655
1280.40918	600.82503
1279.33594	190.38347
1278.26172	853.24144
1277.18848	1466.62098
1276.11426	2209.76063
1275.04004	2103.76343
1273.96582	3168.71731
1272.8916	2540.06408
1271.81641	3039.08371
1270.74121	3604.89789
1269.66602	4216.33044
1268.58984	3968.62473
1267.51465	4936.66239
1266.43848	6228.64401
1265.36231	5882.02562
1264.28516	6260.14301
1263.20898	6584.96376
1262.13184	6799.0233
1261.05469	7801.56448
1259.97656	8824.97577
1258.89941	9538.4481
1257.82129	10068.74352
1256.74316	9632.77643
1255.66504	9923.28475
1254.58594	11035.96146
1253.50684	10860.76953
1252.42773	10739.95733
1251.34863	10474.65278
1250.26856	10787.07838
1249.18945	11582.21247
1248.10938	10099.95716
1247.02832	10015.46548
1245.94824	9904.51615
1244.86719	10543.67673
1243.78613	9873.98314
1242.70508	10192.0153
1241.62305	9317.70355
1240.54102	9690.67517
1239.45898	9175.09752
1238.37695	9139.99538
1237.29492	8969.55944
1236.21191	8724.85909
1235.12891	8424.43295
1234.0459	8236.3876
1232.96191	6849.66124
1231.87891	6917.02249
1230.79492	6035.53997
1229.70996	6082.85718
1228.62598	4945.3242
1227.54102	4842.43721
1226.45606	5645.92113
1225.37109	4690.93263
1224.28613	4582.51517
1223.20019	4246.06402
1222.11426	4021.78989
1221.02832	3747.74743
1219.94238	2622.1784
1218.85547	2250.98277
1217.76856	2227.59875
1216.68164	1847.70093
1215.59375	1385.38176
1214.50684	691.27775
1213.41894	1288.20491
1212.33106	1384.68474
1211.24219	699.01675
1210.1543	-596.68881
1209.06543	-582.75134
1207.97656	-763.00247
1206.88672	-403.76505
1205.79785	-764.57755
1204.70801	18.16801
1203.61816	90.05765
1202.52734	-187.30027
1201.43652	-948.4806
1200.34668	110.12928
1199.25488	-50.09536
1198.16406	-758.57317
1197.07227	-297.9333
1195.98144	-985.04584
1194.88867	-635.6722
1193.79688	-535.45755
1192.7041	-711.36546
1191.61231	899.96974
1190.51856	-550.48012
1189.42578	-954.55743
1188.33203	-380.49039
1187.23828	-835.01492
1186.14453	-419.58132
1185.05078	35.64144
1183.95606	-98.55036
1182.86133	329.107
1181.7666	608.34889
1180.67188	248.08151
1179.57617	697.50329
1178.48047	810.56175
1177.38477	504.82566
1176.28906	-8.00578
1175.19238	-341.21448
1174.0957	365.93062
1172.99902	814.45965
1171.90234	1082.12222
1170.80469	514.05687
1169.70703	1608.04107
1168.60938	1071.67247
1167.51172	1426.93027
1166.41309	1890.22494
1165.31445	2344.48694
1164.21582	2495.39882
1163.11719	4012.44406
1162.01758	4008.1011
1160.91797	4630.14817
1159.81836	5447.8696
1158.71777	6083.07363
1157.61816	7197.76983
1156.51758	7862.47069
1155.41699	8135.08636
1154.31543	8844.30071
1153.21387	9393.54229
1152.11231	10163.59184
1151.01074	11295.18934
1149.90918	10896.37728
1148.80664	11287.95686
1147.7041	11815.18393
1146.60156	13060.53701
1145.49805	13565.61937
1144.39551	13611.07729
1143.29199	13148.63394
1142.1875	13727.56471
1141.08398	15227.80146
1139.97949	14208.97367
1138.875	14717.00093
1137.77051	14276.4199
1136.66504	14225.44756
1135.56055	14413.39906
1134.45508	14325.52873
1133.34863	13526.30321
1132.24316	13727.44212
1131.13672	13653.00945
1130.03027	14165.27609
1128.92383	14690.21014
1127.81641	14547.27352
1126.70898	14349.1979
1125.60156	14137.93234
1124.49414	14575.20405
1123.38574	14466.98064
1122.27832	14508.96521
1121.16894	14257.86944
1120.06055	13525.12796
1118.95117	13289.0501
1117.84277	13980.68971
1116.73242	13171.74254
1115.62305	13812.0361
1114.51269	13629.33183
1113.40332	12168.79425
1112.29199	12323.05815
1111.18164	11715.33697
1110.07031	13184.14362
1108.95898	12685.13117
1107.84766	12570.43623
1106.73633	13053.14304
1105.62402	12726.4199
1104.51172	13991.36088
1103.39941	14296.77805
1102.28613	15894.63046
1101.17383	15673.32872
1100.06055	17088.9199
1098.94629	16780.31093
1097.83301	16538.20121
1096.71875	16094.58649
1095.60449	16484.74477
1094.49023	16395.73808
1093.375	15395.75837
1092.25977	15196.55146
1091.14453	15005.09278
1090.0293	13148.85716
1088.91309	13197.61342
1087.79785	12902.63658
1086.68164	12295.12508
1085.56445	12666.07763
1084.44824	12941.6399
1083.33106	13322.62102
1082.21289	12940.76564
1081.0957	12447.73094
1079.97754	12943.88388
1078.85938	12864.89561
1077.74121	12736.53641
1076.62305	11649.22749
1075.50391	10788.67723
1074.38477	10739.46609
1073.26563	9935.31803
1072.14551	9484.91218
1071.02637	9080.10039
1069.90625	8830.61024
1068.78516	9377.10222
1067.66504	8864.69523
1066.54394	8011.52457
1065.42285	8576.33534
1064.30078	7801.47401
1063.17969	8702.59515
1062.05762	8462.53495
1060.93555	8778.51507
1059.81348	9367.85997
1058.69043	10380.21792
1057.56738	10367.85405
1056.44434	10441.88425
1055.32031	11021.56921
1054.19727	11910.96992
1053.07324	13089.78062
1051.94824	13760.11933
1050.82422	15059.32202
1049.69922	15718.11024
1048.57422	16086.71481
1047.44922	15249.63756
1046.32324	15039.82966
1045.19727	14432.40948
1044.07129	14281.58426
1042.94531	13541.07932
1041.81836	12213.24011
1040.69238	11353.66641
1039.56445	9975.08568
1038.4375	8657.37989
1037.30957	8023.79375
1036.18164	7086.66577
1035.05371	5346.54342
1033.92578	5186.48483
1032.79688	4471.83935
1031.66797	3591.65427
1030.53906	3421.50242
1029.40918	1930.90046
1028.2793	2140.80242
1027.14941	1799.69421
1026.01953	1475.44693
1024.88867	443.43544
1023.75879	945.41192
1022.62695	379.36734
1021.49609	598.45274
1020.36426	1198.2541
1019.23242	1972.8119
1018.10059	1633.69814
1016.96875	2037.13989
1015.83594	2223.30039
1014.70313	2251.32055
1013.57031	2732.10404
1012.43652	2951.10769
1011.30273	2984.57652
1010.16895	3558.99523
1009.03516	4145.55714
1007.90039	5223.19978
1006.7666	6021.12405
1005.63086	7371.61149
1004.49609	8610.48882
1003.36035	10400.55071
1002.22461	10896.2792
1001.08887	11713.6358
999.95313	11822.13824
998.81641	10435.09059
997.67969	10076.80545
996.54297	9794.76151
995.40527	9295.11747
994.26758	9336.09421
993.12988	8889.37901
991.99219	8694.13753
990.85352	8468.9642
989.71484	8406.04821
988.57617	8922.67598
987.4375	8407.87113
986.29785	8283.36829
985.1582	8300.1102
984.01855	8574.29513
982.87793	8396.71887
981.7373	8592.81515
980.59668	9177.3973
979.45605	9590.9136
978.31445	8994.77927
977.17285	9396.28681
976.03125	8861.21849
974.88965	10073.64494
973.74707	10497.75715
972.60449	11617.06434
971.46191	12895.34238
970.31836	12559.68897
969.17578	13764.62674
968.03223	14252.75411
966.8877	15340.03766
965.74414	16493.58203
964.59961	16681.126
963.45508	17060.59028
962.30957	16709.2324
961.16406	18217.77541
960.01855	18210.3417
958.87305	18531.02454
957.72754	19785.26392
956.58105	19222.84508
955.43457	19803.55227
954.28809	20630.78948
953.14063	20606.84975
951.99316	20738.40752
950.8457	21179.34366
949.69727	21905.07757
948.5498	21382.97259
947.40137	21140.25918
946.25293	21536.95832
945.10352	20988.06086
943.9541	21595.11916
942.80469	21387.09698
941.65527	21458.57121
940.50488	21157.99457
939.35449	21156.42531
938.2041	20624.45662
937.05371	19856.5386
935.90234	17608.35983
934.75098	17326.97624
933.59961	15532.82885
932.44727	13713.96133
931.29492	11972.21687
930.14258	9769.64653
928.99023	8101.49684
927.83691	5552.93082
926.68359	3858.23004
925.53027	2620.54065
924.37598	1382.72189
923.22266	1440.00447
922.06836	-503.74727
920.91309	-276.88143
919.75879	-193.16394
918.60352	-746.86452
917.44824	-773.45455
916.29199	-977.41227
915.13672	-588.68168
913.98047	-107.21656
912.82324	106.16617
911.66699	-692.24666
910.50977	-754.79206
909.35254	-0.20433
908.19531	-292.40985
907.03711	-258.38733
905.87891	541.72186
904.7207	-444.21128
903.56152	502.65302
902.40332	-126.68562
901.24414	-327.11903
900.08398	-385.31458
898.9248	-541.46119
897.76465	-512.83063
896.60449	294.84313
895.44336	-305.31263
894.2832	-135.99699
893.12207	276.94852
891.95996	91.47611
890.79883	1425.2513
889.63672	2496.19042
888.47461	2952.79469
887.31152	3961.10942
886.14941	4123.47414
884.98633	5496.28512
883.82324	6617.31208
882.65918	8055.57388
881.49512	8704.85266
880.33105	9816.64751
879.16699	10149.17
878.00195	9009.80227
876.83691	9039.30798
875.67188	8074.01273
874.50684	6547.41726
873.34082	4988.84464
872.1748	4115.55891
871.00781	3176.64713
869.8418	2658.01148
868.6748	1384.41481
867.50781	979.91206
866.33984	711.71597
865.17285	611.88259
864.00488	297.38579
862.83594	211.24521
861.66797	521.046
860.49902	211.20565
859.33008	1127.05815
858.16016	594.5523
856.99121	700.14238
855.82129	1227.85684
854.65039	1190.8169
853.48047	1341.74273
852.30957	1470.66177
851.13867	1602.38705
849.9668	1866.69337
848.7959	2235.84774
847.62402	2253.56051
846.45117	2904.11094
845.2793	3513.97866
844.10645	3904.01814
842.93359	4383.12224
841.75977	3753.22294
840.58691	4446.44027
839.41309	3912.63684
838.23926	3391.18755
837.06445	3643.968
835.88965	3332.49318
834.71484	3595.71017
833.54004	2128.26205
832.36426	1943.78305
831.18848	2455.56416
830.0127	1793.31971
828.83594	1807.11588
827.65918	2203.36922
826.48242	1661.057
825.30566	1613.98764
824.12793	1472.25164
822.9502	2134.78726
821.77246	1771.84041
820.59375	2186.42712
819.41602	1536.03164
818.2373	2323.22916
817.05762	1794.43198
815.87793	2143.25672
814.69824	1791.09687
813.51855	2199.25603
812.33887	1925.12965
811.1582	2195.51951
809.97754	1704.70787
808.7959	2085.12567
807.61523	1021.41406
806.43359	907.35854
805.25098	714.53939
804.06934	677.4735
802.88672	236.36041
801.7041	617.36048
800.52051	48.67433
799.33789	486.90954
798.1543	-197.91927
796.96973	-515.33579
795.78613	-96.77948
794.60156	-793.86708
793.41699	-1046.15751
792.23145	-884.8743
791.04688	-617.51828
789.86035	-185.10579
788.6748	-691.02961
787.48926	-721.46105
786.30273	-657.34914
785.11523	-234.38302
783.92871	63.38512
782.74121	-306.91629
781.55371	-129.2507
780.36621	494.43303
779.17773	407.10874
777.98926	1447.09332
776.80078	1497.16519
775.6123	1025.93869
774.42285	1464.09344
773.2334	2098.87491
772.04297	2724.54688
770.85352	2864.8899
769.66309	3093.42984
768.47168	3998.68256
767.28125	4548.49444
766.08984	4351.36705
764.89844	4155.18072
763.70605	3384.79128
762.51465	2979.33627
761.32227	3128.39944
760.12891	2322.39823
758.93652	2608.69529
757.74316	1006.39878
756.5498	1351.70747
755.35547	1167.45042
754.16211	1026.44146
752.9668	997.29719
751.77246	1426.49705
750.57715	1579.49596
749.38281	1197.76423
748.18652	1126.54609
746.99121	513.88047
745.79492	980.54777
744.59863	1030.2213
743.40137	1286.59559
742.20508	756.24622
741.00781	539.12847
739.81055	254.28823
738.6123	-422.10665
737.41406	438.25776
736.21582	98.14578
735.0166	-608.82313
733.81836	-206.18219
732.61914	-557.89719
731.41895	497.73379
730.21973	179.13945
729.01953	-859.62208
727.81934	-650.65456
726.61816	-622.19876
725.41699	38.98633
724.21582	-530.39258
723.01465	-422.20507
721.8125	-533.80167
720.61035	20.82207
719.4082	429.86767
718.20508	1501.8621
717.00195	1137.77434
715.79883	1504.64519
714.5957	1787.81312
713.3916	1429.53316
712.1875	2785.29922
710.98242	2201.63402
709.77832	2849.71831
708.57324	3187.49669
707.36719	3408.31523
706.16211	3649.65025
704.95605	4599.86627
703.75	4596.05303
702.54297	5245.29884
701.33691	5552.66448
700.12988	6448.97003
698.92188	7066.78871
697.71484	7749.60966
696.50684	8404.63959
695.29785	9788.30606
694.08984	10477.06671
692.88086	11751.11298
691.67188	12670.97651
690.46289	14588.83534
689.25293	16039.84319
688.04297	16672.17375
686.83301	19064.60645
685.62207	20135.80166
684.41113	22755.56627
683.2002	23826.2305
681.98828	25720.10056
680.77637	28453.13459
679.56445	29989.63012
678.35254	32149.42449
677.13965	33210.05761
675.92676	33213.73727
674.71387	32909.96968
673.5	32081.19195
672.28613	30238.07439
671.07227	28438.51067
669.8584	27303.55734
668.64355	26737.57554
667.42871	26379.55673
666.21289	24664.48639
664.99805	23748.63986
663.78223	23797.97529
662.56543	23213.39906
661.34961	22602.76933
660.13281	21948.256
658.91602	21570.10564
657.69824	21311.13817
656.48047	20972.5779
655.2627	20165.59908
654.04492	20033.48497
652.82617	18701.75133
651.60742	18526.16624
650.38867	18833.54753
649.16895	18710.08298
647.94922	18831.82439
646.72949	20179.03252
645.50879	20703.77548
644.28809	20752.50215
643.06738	22816.01337
641.84668	23476.40806
640.625	25279.53137
639.40332	26564.67409
638.18164	28040.24227
636.95898	29858.31925
635.73633	30869.62539
634.51367	32102.24511
633.29004	32368.66827
632.06641	33131.90894
630.84277	33006.73645
629.61914	32821.34684
628.39453	32060.42964
627.16992	32499.61389
625.94531	32272.35469
624.71973	30796.42463
623.49414	30703.40177
622.26855	30017.21738
621.04199	29647.87214
619.81543	29270.93762
618.58887	28850.3275
617.36133	28790.78678
616.13477	27656.56397
614.90723	27773.89859
613.67871	27843.60401
612.4502	28577.78285
611.22168	27122.76899
609.99316	25296.92686
608.76367	23524.0085
607.53418	21881.63668
606.30469	20793.31823
605.0752	18472.99728
603.84473	17874.10151
602.61426	16610.97414
601.38281	15256.8785
600.15137	14144.5104
598.91992	13783.65829
597.68848	12618.47803
596.45605	11683.00049
595.22363	10854.81123
593.99121	10214.17778
592.75781	9152.01936
591.52441	8737.98307
590.29102	7950.20405
589.05762	7107.95737
587.82324	6281.83242
586.58887	5565.95377
585.35352	4810.92003
584.11816	4821.45169
582.88281	4086.30347
581.64746	3345.5081
580.41113	2424.9764
579.1748	2242.41502
577.93848	1416.59984
576.70117	689.38091
575.46484	775.27228
574.22656	756.59811
572.98926	675.9388
571.75098	682.9952
570.5127	256.51887
569.27344	90.91663
568.03516	752.18904
566.7959	-159.41408
565.55566	-547.56069
564.31641	-547.25884
563.07617	-1335.36248
561.83496	-1744.29242
560.59473	-1570.67515
559.35352	-1376.8091
558.11133	-569.10145
556.87012	-1111.8511
555.62793	-1065.28556
554.38574	119.46843
553.14355	579.46468
551.90039	1901.23938
550.65723	2622.87996
549.41309	3195.99997