#Wave		#Intensity
1800.60156	-70.25862
1798.94824	56.66007
1797.2959	233.77747
1795.6416	181.33701
1793.98828	62.35556
1792.33398	55.97068
1790.67871	26.62346
1789.02344	-73.25839
1787.36816	-20.52651
1785.71191	-79.03652
1784.05566	-5.23433
1782.39844	-87.45677
1780.74121	-3.63713
1779.08398	68.24326
1777.42578	232.45022
1775.76758	89.86396
1774.1084	215.65365
1772.44922	260.05944
1770.78906	345.68054
1769.12891	468.3834
1767.46875	566.73462
1765.80762	515.34398
1764.14551	775.84685
1762.48438	625.84453
1760.82129	609.44914
1759.15918	486.75794
1757.49609	729.28711
1755.83203	467.36441
1754.16797	617.72795
1752.50391	477.19752
1750.83887	372.87257
1749.17383	382.16029
1747.50879	506.36889
1745.84277	200.02535
1744.17578	266.55935
1742.50879	132.37221
1740.8418	47.7088
1739.17383	-120.60786
1737.50586	-24.70289
1735.83691	38.36317
1734.16797	-34.49838
1732.49902	67.74416
1730.8291	138.93898
1729.15918	432.63797
1727.48828	618.00968
1725.81738	773.62979
1724.14551	990.81761
1722.47363	1205.29914
1720.80078	1510.2692
1719.12891	1674.61721
1717.45508	1439.80983
1715.78125	1349.64124
1714.10742	1292.40414
1712.43359	1041.83292
1710.75781	743.08568
1709.08301	603.55739
1707.40723	543.9953
1705.73144	247.26055
1704.05469	285.98983
1702.37695	-32.91468
1700.70019	78.32338
1699.02246	-13.44523
1697.34375	63.15659
1695.66504	-98.40042
1693.98633	-9.8384
1692.30664	90.93329
1690.62695	-169.03865
1688.94629	97.1279
1687.26563	125.25514
1685.58398	234.60592
1683.90234	275.03
1682.21973	657.82233
1680.53809	828.48524
1678.85449	956.76719
1677.1709	1422.56476
1675.48731	1698.21752
1673.80371	2322.23196
1672.11816	3190.34745
1670.43359	4152.25946
1668.74805	5314.2758
1667.06152	6816.85084
1665.37598	8811.99836
1663.68848	11871.78557
1662.00195	16177.13302
1660.31348	22150.54893
1658.62598	31388.05099
1656.9375	45043.47451
1655.24805	64356.04852
1653.55859	87918.85691
1651.86914	110827.90296
1650.17871	126997.11349
1648.48828	130074.91776
1646.79688	119443.88158
1645.10547	101246.26645
1643.41406	81129.29276
1641.72168	63091.23355
1640.02832	49219.93832
1638.33496	38632.59457
1636.6416	30523.47862
1634.94727	25028.70477
1633.25293	20344.29893
1631.55762	17206.03207
1629.86231	14925.53865
1628.16699	13315.11822
1626.4707	11968.96998
1624.77344	10511.86883
1623.07617	9878.27405
1621.37891	8846.61493
1619.68066	8633.89083
1617.98242	8295.43688
1616.2832	8488.92681
1614.58398	9307.68401
1612.88477	10317.92146
1611.18457	12148.03865
1609.4834	14053.37377
1607.7832	16105.99609
1606.08106	17611.28906
1604.37988	19347.94202
1602.67676	21175.52837
1600.97461	24482.1875
1599.27148	29592.94202
1597.56738	33432.50617
1595.86328	34300.01028
1594.15918	30885.69696
1592.4541	26340.86554
1590.74805	22587.55757
1589.04297	19884.21053
1587.33691	19567.14844
1585.62988	20933.88569
1583.92285	24625.76275
1582.21484	30652.48355
1580.50684	40851.13898
1578.79883	54650.15214
1577.08984	69531.33224
1575.38086	77585.47697
1573.6709	79349.76151
1571.95996	76380.43586
1570.25	72131.06908
1568.53906	66950.69079
1566.82715	59896.68586
1565.11523	51663.79523
1563.40332	43412.42599
1561.69043	37082.17516
1559.97656	32649.05633
1558.26269	30451.25617
1556.54883	29310.87993
1554.83398	28904.53536
1553.11914	28489.80469
1551.4043	27653.82401
1549.6875	26602.28824
1547.97168	25379.90543
1546.25488	24490.92105
1544.53711	23643.22985
1542.82031	22894.58882
1541.10156	22516.69819
1539.38281	22493.45395
1537.66406	22925.64556
1535.94434	24178.38199
1534.22461	26439.74095
1532.50488	29099.56209
1530.78418	32111.44326
1529.0625	35525.43174
1527.34082	39831.15543
1525.61914	45724.69572
1523.89648	54141.3528
1522.17383	67399.18997
1520.45019	85919.50658
1518.72656	113168.02632
1517.00195	149361.82566
1515.27734	191114.70395
1513.55176	235873.78289
1511.82617	269145.55921
1510.09961	287297.5
1508.37402	284116.97368
1506.64648	264506.11842
1504.91894	236638.35526
1503.19141	202829.29276
1501.46289	171350.09868
1499.73438	141856.48026
1498.00488	115050.1727
1496.27539	91995.63322
1494.54492	71956.34868
1492.81445	57563.92681
1491.08398	47029.95066
1489.35254	38367.20395
1487.62012	31238.66776
1485.88769	26275.32689
1484.15527	21791.59951
1482.42188	18893.66982
1480.68848	16784.79132
1478.9541	15504.00185
1477.21973	14568.71916
1475.48438	13954.09128
1473.74902	14192.70765
1472.01269	14289.24239
1470.27637	14711.82155
1468.54004	14619.26501
1466.80273	13151.60259
1465.06445	11113.10341
1463.32715	9422.65728
1461.58789	7939.67105
1459.84863	7017.14176
1458.10938	6535.23489
1456.36914	6888.63435
1454.62891	6758.99928
1452.88867	7293.60866
1451.14648	7309.92033
1449.40527	7658.29821
1447.66309	7804.35187
1445.91992	7422.24147
1444.17676	6819.17352
1442.43359	6345.56898
1440.68945	5753.32905
1438.94531	5575.95652
1437.20019	6285.50216
1435.4541	7163.46988
1433.70898	7487.28156
1431.96191	6507.58686
1430.21582	4889.45724
1428.46875	2907.85002
1426.7207	2039.91481
1424.97266	2259.3105
1423.22363	3338.4357
1421.47461	5324.21824
1419.72559	6608.39433
1417.97559	7078.40306
1416.22461	6330.57412
1414.47461	4256.22379
1412.72266	2425.52503
1410.9707	888.05677
1409.21875	70.63137
1407.46582	-56.1241
1405.71289	-19.01465
1403.95898	577.88722
1402.20508	1144.27426
1400.45117	2107.77357
1398.69531	2540.20945
1396.94043	2954.87767
1395.18457	3796.58743
1393.42773	5317.9374
1391.6709	7049.90594
1389.91406	9833.54338
1388.15625	13108.80962
1386.39844	16885.73602
1384.63965	21856.93051
1382.87988	27012.33347
1381.12109	31773.44367
1379.36035	35339.34622
1377.60059	39035.26727
1375.83887	41554.58882
1374.07813	44679.77385
1372.31641	50618.38405
1370.55371	64157.16283
1368.79102	88486.89967
1367.02734	128437.23684
1365.26367	181519.63816
1363.5	229894.91776
1361.73535	250616.67763
1359.96973	234257.30263
1358.2041	192939.25987
1356.43848	152497.91118
1354.67188	125770.04112
1352.90527	108970.05757
1351.13769	96636.08553
1349.37012	86926.54605
1347.60156	77822.43421
1345.83301	65932.10526
1344.06348	53189.16118
1342.29394	41043.05921
1340.52344	31095.4009
1338.75293	24523.4375
1336.98144	20421.04852
1335.20996	18236.62212
1333.4375	16976.1616
1331.66504	16796.38877
1329.89258	17282.87212
1328.11914	19470.73396
1326.34473	23564.73067
1324.57031	29540.79153
1322.7959	37948.25247
1321.02051	49346.20477
1319.24414	63462.89885
1317.46875	80741.75987
1315.69141	101812.08059
1313.91406	128110.61678
1312.13672	151271.29934
1310.3584	164431.97368
1308.58008	159657.5
1306.80078	140141.69408
1305.02148	116208.5773
1303.24121	93983.56908
1301.46094	75162.61513
1299.67969	62346.52549
1297.89844	53705.3125
1296.11621	47548.53207
1294.33398	44327.85362
1292.55176	41991.17188
1290.76856	41487.26563
1288.98438	40075.73602
1287.20019	36673.51974
1285.41504	31015.29194
1283.62988	25658.61637
1281.84473	21416.4412
1280.05859	18950.08635
1278.27148	19184.22081
1276.48438	20022.26974
1274.69727	22122.4815
1272.90918	22990.38035
1271.12109	22759.91571
1269.33203	21605.59005
1267.54199	19558.16612
1265.75195	17293.0366
1263.96191	14859.05119
1262.1709	12624.81908
1260.37988	10003.42928
1258.58789	7760.2575
1256.7959	5865.73602
1255.00293	3951.91997
1253.20996	2802.60691
1251.41602	1929.89386
1249.62207	1210.83252
1247.82715	574.86039
1246.03223	23.72606
1244.23633	66.82333
1242.44043	-16.50384
1240.64356	-94.45083
1238.84668	83.83213
1237.04883	448.90503
1235.25098	894.56659
1233.45313	1001.76115
1231.6543	845.46245
1229.85449	770.38266
1228.05469	547.08965
1226.25391	521.86254
1224.45313	432.19405
1222.65234	397.09428
1220.84961	33.64171
1219.04785	186.2535
1217.24512	-108.6284
1215.44141	703.89591
1213.63769	1361.26658
1211.83398	2763.2188
1210.0293	4457.15872
1208.22363	7011.30859
1206.41797	10450.01748
1204.61231	15443.03248
1202.80566	21215.15831
1200.99805	26528.9412
1199.19043	29809.28454
1197.38281	30285.91077
1195.57422	31483.50329
1193.76465	34389.61554
1191.95508	39905.28783
1190.14551	46897.82484
1188.33496	54418.58964
1186.52441	62122.30263
1184.71289	70942.5
1182.90039	79661.01974
1181.08789	83547.20395
1179.27539	81863.61842
1177.46191	71797.69737
1175.64844	56473.38816
1173.83398	40998.40872
1172.01856	29373.39844
1170.20313	21250.54071
1168.38769	16196.53783
1166.57129	12682.20292
1164.75488	9821.92126
1162.9375	7602.59868
1161.11914	6074.9116
1159.30078	4484.01264
1157.48242	3772.46839
1155.66309	3348.18179
1153.84375	2897.98777
1152.02344	3011.96829
1150.20313	3507.18647
1148.38184	4620.12181
1146.55957	5488.79523
1144.73731	6844.08974
1142.91504	8220.77919
1141.0918	9780.6178
1139.26856	11147.93586
1137.44434	12012.92249
1135.61914	13855.21998
1133.79394	17441.25411
1131.96875	23414.25987
1130.14258	31663.98643
1128.31641	39525.97451
1126.48926	44727.5
1124.66113	42571.21711
1122.83398	35099.34211
1121.00488	27269.80263
1119.17578	21238.44984
1117.34668	17249.52714
1115.5166	14081.84416
1113.68555	11319.49938
1111.85449	8780.65995
1110.02344	7260.12284
1108.19141	5850.73448
1106.35938	4886.68894
1104.52637	4325.47183
1102.69238	3839.37808
1100.8584	3936.35614
1099.02441	4491.60927
1097.18945	5817.62079
1095.35352	7730.59982
1093.51758	10913.4889
1091.68164	14359.02138
1089.84473	17579.37911
1088.00684	19758.419
1086.16894	20292.59868
1084.33106	18231.21505
1082.49219	14372.07031
1080.65234	11053.5074
1078.8125	7823.77518
1076.97168	5387.7904
1075.13086	3787.89808
1073.29004	2235.54251
1071.44824	1292.43177
1069.60547	526.99023
1067.76269	204.94259
1065.91894	73.56592
1064.07519	-9.88345
1062.23047	-7.06095
1060.38574	234.5963
1058.54102	593.78296
1056.69434	804.57526
1054.84863	1047.53527
1053.00098	1553.01861
1051.1543	1984.35714
1049.30566	2541.00869
1047.45801	3036.2094
1045.6084	3014.69881
1043.75977	2852.63235
1041.90918	2671.71695
1040.05859	2363.11266
1038.20801	1989.18778
1036.35644	1724.47677
1034.50488	1390.46991
1032.65234	1105.36634
1030.79981	889.54583
1028.94629	573.95713
1027.0918	597.61173
1025.23731	560.49869
1023.38281	927.84919
1021.52734	1417.86711
1019.6709	1966.14592
1017.81445	2724.66823
1015.95801	3327.2831
1014.10059	3834.09411
1012.24219	4580.1619
1010.38379	5353.30387
1008.52539	6733.27457
1006.66602	7393.89648
1004.80566	6672.68555
1002.94531	5042.27385
1001.08398	3495.61909
999.22266	2444.75432
997.36035	1688.33008
995.49805	1110.62474
993.63477	759.66739
991.77148	386.24014
989.90723	398.82578
988.04297	147.23296
986.17773	4.43428
984.3125	-94.71715
982.44629	-78.28512
980.5791	46.22283
978.71191	-221.80963
976.84473	44.85171
974.97656	30.25241
973.10742	43.86263
971.23828	74.3775
969.36914	36.58519
967.49902	140.40354
965.62793	209.84494
963.75684	80.99483
961.88477	366.65826
960.0127	237.31733
958.13965	323.46275
956.2666	396.45787
954.39355	654.91834
952.51855	469.40789
950.64355	510.59937
948.76855	717.48978
946.89258	624.29816
945.0166	773.58353
943.13965	1128.83416
941.2627	1388.29603
939.38477	2293.87978
937.50586	3222.36611
935.62695	4762.75236
933.74707	6888.033
931.86719	9660.1141
929.9873	11463.02426
928.10645	10449.8602
926.22461	8427.99907
924.34277	6342.17157
922.45996	5010.04986
920.57715	4400.06887
918.69336	3981.1138
916.80957	3566.64268
914.9248	3496.7005
913.03906	3088.34524
911.1543	3144.28043
909.26758	3184.69341
907.38086	3237.08856
905.49414	3592.10424
903.60645	4196.39751
901.71777	5052.56785
899.8291	5497.84488
897.93945	5615.13672
896.0498	5236.95158
894.15918	4723.88209
892.26855	4858.2535
890.37695	4754.73684
888.48535	5826.36256
886.59277	6807.6727
884.7002	7354.39042
882.80664	7797.40903
880.91211	7512.04975
879.01758	6240.99404
877.12305	5050.11667
875.22754	4302.00735
873.33105	3754.46418
871.43457	3412.601
869.53711	3001.01871
867.63965	2880.02827
865.74121	2468.46217
863.84277	2246.71849
861.94336	1970.77071
860.04395	1887.7381
858.14355	2114.06584
856.24219	2143.52732
854.34082	2030.52362
852.43945	1905.84061
850.53711	1529.12957
848.63379	1192.35506
846.73047	808.51755
844.82617	664.74532
842.92188	545.93474
841.0166	396.06648
839.11133	390.67164
837.20508	824.99313
835.29883	1009.74166
833.3916	1589.39505
831.4834	2438.01835
829.5752	2489.30793
827.66699	2380.83959
825.75684	1958.68717
823.84766	1612.73116
821.9375	1107.65368
820.02637	547.92911
818.11426	487.00741
816.20313	274.84712
814.29004	-60.66483
812.37695	44.87631
810.46387	-0.17825
808.5498	417.83547
806.63477	502.23382
804.71973	704.36414
802.80371	883.27303
800.8877	1340.69644
798.9707	1730.16512
797.05371	2019.03719
795.13574	2479.08717
793.21777	3274.22338
791.29883	4317.49229
789.37891	6145.76275
787.45898	8993.59992
785.53906	13877.31394
783.61719	22186.21916
781.69629	35335.75658
779.77344	54108.69243
777.85156	71885.63322
775.92773	78739.35855
774.00391	78944.66283
772.08008	78768.69243
770.15527	79895.57566
768.22949	83376.54605
766.30371	78764.70395
764.37793	63096.0773
762.4502	41493.2648
760.52344	23101.84827
758.59473	11506.35177
756.66602	5447.32062
754.7373	2520.69156
752.80762	803.22465
750.87695	55.56198
748.94629	39.95287
747.01563	-87.04175
745.08301	157.33932
743.15137	573.94403
741.21777	1263.32905
739.28418	1016.95055
737.35059	1108.07733
735.41602	860.30389
733.48047	570.11314
731.54492	608.42311
729.60938	988.7234
727.67188	1059.05235
725.73535	1354.8593
723.79688	2543.42876
721.8584	3391.94053
719.91992	3208.06332
717.98047	2319.59498
716.04004	1486.2518
714.09961	1078.17935
712.1582	819.75579
710.2168	744.36093
708.27441	919.49456
706.33203	1226.9688
704.38867	1891.06831
702.44434	2637.19984
700.5	2980.74193
698.55566	2863.84149
696.61035	2253.6711
694.66406	1727.85272
692.7168	1543.21777
690.77051	1623.39869
688.82227	1968.01437
686.87402	2298.65389
684.92578	2676.90327
682.97559	3693.77082
681.02637	4601.59591
679.0752	5628.37479
677.125	7301.22122
675.17285	7498.68575
673.2207	6320.31404
671.26855	5863.94171
669.31543	5502.65574
667.36133	5517.09087
665.40723	6841.69459
663.45215	11341.38877
661.49707	18037.32319
659.54102	23618.14967
657.58398	24275.23438
655.62695	17390.85526
653.66895	10072.15152
651.71094	6655.56332
649.75195	5228.97255
647.79297	4627.57453
645.83301	4738.02632
643.87305	5990.62654
641.91211	8597.63877
639.9502	12447.73951
637.98828	17527.62952
636.02539	22064.8602
634.0625	21315.87582
632.09863	17202.23787
630.13379	12283.86205
628.16895	8840.37212
626.20313	7580.78999
624.2373	7833.30798
622.27148	9252.04975
620.30371	12944.40789
618.33594	21427.81044
616.36816	43700.87582
614.39941	107995.18092
612.42969	225538.94737
610.45996	227107.82895
608.48926	123022.57401
606.51855	54183.8199
604.54688	24109.78413
602.57422	12684.80572
600.60156	7501.45097
598.62793	4856.59077
596.6543	2860.53248
594.67969	2019.32669
592.70508	1076.73757
590.72949	708.13881
588.75293	168.5065
586.77637	61.4111
584.79883	-43.7501
582.82129	-115.54125
580.84277	98.83502
578.86426	1053.59735
576.88477	2327.38256
574.9043	5440.42969
572.92383	10413.53104
570.94238	18614.68133
568.96094	27955.8861
566.97852	31840.81003
564.99512	25224.81497
563.01172	15056.90276
561.02734	8693.15378
559.04297	5878.90728
557.05762	4675.4045
555.07227	4447.22913
553.08594	3785.83008
551.09863	1774.61863
549.11133	-1.00439