#Wave		#Intensity
1800.529297	1975.685059
1798.058594	1971.653076
1795.587891	1955.950195
1793.115234	1960.404419
1790.642578	1969.891235
1788.169922	1942.120361
1785.697266	1941.541504
1783.222656	1926.875732
1780.746094	1879.023804
1778.269531	1916.676270
1775.792969	1953.300659
1773.316406	1927.592896
1770.837891	1936.060059
1768.357422	1985.702393
1765.878906	2019.249146
1763.398438	2052.775635
1760.916016	1927.728394
1758.435547	2007.408936
1755.951172	1950.646729
1753.468750	1954.074463
1750.984375	1989.573608
1748.498047	1964.930908
1746.013672	1969.352173
1743.527344	1983.784546
1741.039063	1953.158203
1738.550781	1967.586304
1736.062500	1934.981567
1733.574219	1943.404663
1731.083984	1960.821533
1728.591797	1946.240234
1726.099609	1936.663940
1723.607422	1962.058594
1721.115234	1954.480225
1718.621094	1980.852051
1716.126953	2016.190918
1713.630859	2021.573853
1711.134766	1995.032837
1708.636719	2037.315308
1706.140625	2025.738647
1703.640625	2062.006348
1701.142578	1996.627197
1698.642578	1996.028564
1696.140625	2033.267334
1693.640625	2023.698608
1691.138672	2030.057373
1688.634766	2056.308594
1686.130859	2057.680420
1683.626953	2062.033936
1681.121094	2003.766724
1678.615234	2026.018555
1676.109375	2014.483276
1673.601563	2092.328125
1671.093750	2103.612305
1668.583984	2122.828857
1666.074219	2108.300781
1663.564453	2047.164551
1661.052734	2135.788086
1658.541016	2155.961914
1656.027344	2160.268066
1653.513672	2217.075928
1651.000000	2223.341064
1648.484375	2344.448730
1645.968750	2239.818604
1643.453125	2225.291748
1640.935547	2165.271973
1638.417969	2119.132080
1635.898438	2085.871094
1633.378906	2202.846436
1630.859375	2148.832031
1628.337891	2141.270752
1625.816406	2133.713623
1623.292969	2202.165283
1620.769531	2181.765625
1618.246094	2166.310303
1615.720703	2167.628906
1613.195313	2162.045410
1610.669922	2234.326172
1608.142578	2267.151611
1605.613281	2203.427490
1603.085938	2212.608887
1600.556641	2234.581787
1598.025391	2234.890625
1595.494141	2199.782227
1592.962891	2195.183350
1590.429688	2206.318115
1587.896484	2207.616699
1585.363281	2253.131836
1582.828125	2278.972900
1580.292969	2271.409180
1577.755859	2346.314209
1575.218750	2418.229492
1572.681641	2406.705078
1570.142578	2408.918701
1567.603516	2391.520020
1565.062500	2362.368652
1562.521484	2318.535645
1559.980469	2264.932373
1557.437500	2228.989258
1554.894531	2191.109619
1552.349609	2224.701660
1549.804688	2218.156006
1547.259766	2247.805908
1544.712891	2240.279053
1542.166016	2189.743164
1539.619141	2153.896973
1537.070313	2232.377441
1534.519531	2194.585938
1531.970703	2185.132080
1529.417969	2167.874756
1526.867188	2242.351318
1524.314453	2251.424561
1521.761719	2250.740234
1519.207031	2215.934570
1516.652344	2290.304688
1514.095703	2379.243652
1511.539063	2383.389648
1508.982422	2410.901855
1506.423828	2415.035156
1503.865234	2426.950439
1501.306641	2357.141113
1498.746094	2278.621338
1496.185547	2233.204590
1493.623047	2195.590820
1491.060547	2248.361572
1488.496094	2236.020020
1485.931641	2177.075684
1483.367188	2239.510254
1480.800781	2206.802246
1478.234375	2217.770752
1475.667969	2227.762207
1473.099609	2232.899658
1470.531250	2202.170654
1467.960938	2224.753418
1465.390625	2228.917236
1462.818359	2309.580078
1460.246094	2212.066162
1457.673828	2272.360352
1455.099609	2296.820557
1452.525391	2329.002686
1449.951172	2355.363525
1447.375000	2350.776611
1444.796875	2423.496582
1442.220703	2363.828125
1439.642578	2366.967285
1437.062500	2349.830566
1434.482422	2353.936523
1431.902344	2305.938721
1429.320313	2319.700195
1426.738281	2317.060791
1424.154297	2370.331299
1421.570313	2368.640869
1418.986328	2378.511230
1416.400391	2376.818604
1413.814453	2341.430176
1411.226563	2346.486328
1408.638672	2350.576904
1406.050781	2325.808350
1403.460938	2388.558350
1400.871094	2410.895508
1398.279297	2393.817871
1395.687500	2450.723877
1393.095703	2487.426025
1390.501953	2459.778320
1387.908203	2510.851563
1385.312500	2456.346680
1382.716797	2445.998779
1380.119141	2456.753174
1377.521484	2421.486572
1374.923828	2435.115967
1372.324219	2465.023193
1369.724609	2399.137695
1367.125000	2554.461914
1364.523438	2642.689697
1361.919922	2688.760986
1359.318359	2633.408203
1356.712891	2608.689697
1354.109375	2486.476807
1351.503906	2435.059082
1348.896484	2385.583252
1346.291016	2405.858887
1343.681641	2363.105469
1341.074219	2361.421143
1338.464844	2360.691895
1335.853516	2320.852295
1333.242188	2306.784668
1330.630859	2281.285400
1328.017578	2342.526611
1325.404297	2379.911377
1322.789063	2390.604492
1320.173828	2448.897461
1317.558594	2397.691895
1314.941406	2430.253906
1312.324219	2464.697998
1309.705078	2496.267334
1307.085938	2563.942139
1304.466797	2454.805664
1301.845703	2439.793701
1299.224609	2438.087646
1296.601563	2386.059570
1293.978516	2417.592285
1291.353516	2417.791260
1288.728516	2434.115967
1286.103516	2408.704590
1283.476563	2383.308594
1280.849609	2376.882324
1278.220703	2391.302979
1275.591797	2471.066406
1272.962891	2423.903809
1270.332031	2455.333008
1267.701172	2423.343506
1265.068359	2406.508789
1262.435547	2388.738525
1259.800781	2405.012207
1257.166016	2398.593506
1254.531250	2376.116943
1251.894531	2388.600098
1249.257813	2435.065918
1246.619141	2471.119629
1243.980469	2430.718506
1241.341797	2444.110840
1238.701172	2416.944580
1236.058594	2450.129150
1233.417969	2360.777100
1230.775391	2443.890625
1228.130859	2436.535400
1225.486328	2484.735352
1222.839844	2475.488770
1220.195313	2369.328613
1217.546875	2436.316650
1214.900391	2371.610596
1212.250000	2365.229248
1209.601563	2366.369629
1206.951172	2349.658691
1204.298828	2405.275879
1201.648438	2394.195801
1198.994141	2327.744385
1196.341797	2370.178711
1193.685547	2380.693115
1191.031250	2415.581543
1188.375000	2522.629883
1185.718750	2524.651367
1183.060547	2567.892334
1180.400391	2497.782959
1177.742188	2486.701172
1175.082031	2459.714844
1172.419922	2402.803223
1169.757813	2368.376221
1167.095703	2323.684326
1164.431641	2379.042480
1161.767578	2330.636475
1159.101563	2327.102295
1156.435547	2391.745361
1153.767578	2360.184814
1151.101563	2396.776123
1148.431641	2357.768799
1145.761719	2350.498535
1143.091797	2347.894775
1140.419922	2372.324463
1137.748047	2417.239258
1135.076172	2452.809814
1132.402344	2511.639404
1129.726563	2536.916260
1127.052734	2403.960205
1124.375000	2420.880615
1121.699219	2462.902588
1119.019531	2409.127686
1116.341797	2441.830811
1113.662109	2433.627197
1110.982422	2451.438477
1108.300781	2403.304932
1105.617188	2357.058105
1102.935547	2419.421631
1100.251953	2375.053467
1097.566406	2435.516357
1094.880859	2398.587646
1092.193359	2362.608643
1089.507813	2448.034668
1086.818359	2375.010254
1084.128906	2424.263672
1081.439453	2454.045410
1078.750000	2373.683838
1076.058594	2420.114014
1073.365234	2448.942871
1070.671875	2374.205078
1067.978516	2425.211182
1065.283203	2466.020996
1062.587891	2439.377686
1059.890625	2450.608643
1057.193359	2425.832275
1054.494141	2450.901123
1051.794922	2467.651611
1049.095703	2445.658691
1046.394531	2445.804688
1043.693359	2506.776611
1040.990234	2428.590576
1038.287109	2412.162354
1035.582031	2427.969727
1032.876953	2452.970947
1030.169922	2473.355225
1027.462891	2479.008545
1024.755859	2379.827393
1022.046875	2409.406982
1019.337891	2479.402100
1016.626953	2518.117188
1013.916016	2451.191895
1011.203125	2478.873047
1008.490234	2548.755371
1005.777344	2524.088623
1003.062500	2568.229004
1000.347656	2555.490967
997.630859	2509.761475
994.914063	2450.315430
992.195313	2476.100098
989.476563	2488.131348
986.755859	2451.634521
984.035156	2491.120361
981.314453	2518.687256
978.591797	2439.228271
975.867188	2486.907715
973.142578	2498.909912
970.417969	2455.166992
967.691406	2484.525879
964.964844	2468.208740
962.238281	2450.988770
959.509766	2494.920410
956.779297	2488.649170
954.048828	2475.997559
951.318359	2443.296875
948.585938	2442.515137
945.853516	2488.199219
943.119141	2432.754395
940.384766	2514.832031
937.648438	2522.218506
934.912109	2572.366455
932.175781	2569.722900
929.437500	2525.250732
926.697266	2536.258789
923.957031	2526.357910
921.216797	2541.900146
918.474609	2550.166504
915.732422	2544.808594
912.988281	2544.899414
910.244141	2479.663574
907.500000	2539.637207
904.753906	2523.407227
902.005859	2475.462158
899.257813	2472.854248
896.509766	2576.231934
893.759766	2492.092285
891.009766	2532.933105
888.257813	2553.837646
885.505859	2544.873779
882.751953	2474.416504
879.998047	2443.784668
877.242188	2443.901611
874.486328	2446.728516
871.730469	2407.101563
868.972656	2493.910889
866.214844	2475.054199
863.455078	2541.030518
860.693359	2465.339844
857.933594	2504.222656
855.169922	2561.109619
852.408203	2452.140381
849.644531	2482.880371
846.878906	2520.804932
844.113281	2544.299561
841.347656	2500.276367
838.580078	2491.371094
835.810547	2554.426514
833.041016	2513.138916
830.271484	2467.383057
827.500000	2521.398193
824.728516	2550.226074
821.955078	2482.949463
819.181641	2496.509277
816.408203	2493.906250
813.630859	2440.168701
810.855469	2428.616455
808.078125	2443.967529
805.298828	2539.970703
802.521484	2498.829346
799.740234	2403.974121
796.958984	2476.615723
794.177734	2487.448730
791.394531	2511.696289
788.611328	2489.413086
785.826172	2489.499512
783.041016	2539.645020
780.255859	2644.269531
777.466797	2697.011719
774.679688	2974.769043
771.890625	2923.807617
769.099609	2763.104248
766.308594	2663.173340
763.517578	2582.928955
760.724609	2465.288574
757.931641	2472.508545
755.136719	2431.607910
752.341797	2417.455566
749.544922	2430.025146
746.748047	2482.643311
743.949219	2507.640869
741.150391	2443.664063
738.349609	2445.535889
735.548828	2433.181885
732.748047	2368.401855
729.945313	2442.256592
727.140625	2412.152100
724.335938	2332.347656
721.531250	2378.626709
718.724609	2390.271973
715.917969	2400.135498
713.109375	2408.218506
710.300781	2398.568115
707.490234	2385.379395
704.679688	2376.627686
701.867188	2424.554688
699.054688	2375.074463
696.240234	2306.157471
693.425781	2329.288818
690.611328	2309.071045
687.794922	2344.562500
684.976563	2305.792480
682.158203	2360.697998
679.339844	2335.195313
676.519531	2352.088867
673.697266	2406.041504
670.875000	2392.018066
668.052734	2380.649658
665.228516	2364.879395
662.404297	2342.948975
659.578125	2393.289063
656.751953	2336.126953
653.923828	2330.077148
651.095703	2261.528320
648.265625	2295.106934
645.435547	2320.745605
642.603516	2308.550781
639.771484	2368.454590
636.939453	2295.609131
634.105469	2261.468994
631.269531	2273.900146
628.433594	2257.348633
625.595703	2325.945801
622.757813	2154.960205
619.919922	2341.081787
617.080078	2414.843750
614.240234	2955.763672
611.398438	3187.879395
608.554688	2579.772949
605.712891	2247.910400
602.867188	2262.052002
600.021484	2232.427979
597.175781	2180.952148
594.328125	2233.580322
591.480469	2173.394775
588.630859	2193.653320
585.781250	2106.435791
582.931641	2192.206543
580.078125	2154.812988
577.226563	2076.421631
574.373047	2086.206543
571.517578	2143.085205
568.662109	2192.950684
565.804688	2071.065430
562.947266	2086.065918
560.089844	2085.376709
557.230469	2106.457275
554.369141	2077.034180
551.507813	2100.713623
548.646484	2075.660645
