#Wave		#Intensity
1800.60156	1.40845E-6
1798.94824	189.42386
1797.2959	346.08816
1795.6416	-219.3345
1793.98828	-259.46504
1792.33398	-223.15621
1790.67871	-44.81513
1789.02344	-31.80651
1787.36816	-687.15085
1785.71191	-439.06265
1784.05566	-526.82697
1782.39844	-489.89485
1780.74121	-158.05362
1779.08398	-6.54127
1777.42578	-190.77398
1775.76758	-169.20713
1774.1084	-320.50234
1772.44922	-283.15902
1770.78906	-235.95985
1769.12891	-99.73345
1767.46875	-186.12544
1765.80762	-354.64778
1764.14551	100.77326
1762.48438	-54.89215
1760.82129	32.09942
1759.15918	-256.45225
1757.49609	137.16031
1755.83203	10.68408
1754.16797	159.05998
1752.50391	329.16269
1750.83887	-158.47943
1749.17383	-190.35575
1747.50879	81.53719
1745.84277	108.53811
1744.17578	213.80916
1742.50879	-385.40772
1740.8418	-533.85459
1739.17383	-178.32032
1737.50586	-29.81129
1735.83691	256.45731
1734.16797	-217.94231
1732.49902	-480.87788
1730.8291	-194.42978
1729.15918	-60.33907
1727.48828	-91.15125
1725.81738	-71.6323
1724.14551	-83.71611
1722.47363	-6.77187
1720.80078	-212.10157
1719.12891	17.54812
1717.45508	-262.51944
1715.78125	250.45923
1714.10742	-186.0933
1712.43359	-199.62821
1710.75781	-195.72332
1709.08301	-226.64381
1707.40723	-383.48097
1705.73144	-146.18504
1704.05469	-162.50105
1702.37695	-159.34534
1700.70019	17.00637
1699.02246	-413.30362
1697.34375	-549.171
1695.66504	57.33389
1693.98633	-313.26888
1692.30664	-403.26179
1690.62695	-393.3825
1688.94629	-230.52753
1687.26563	-58.72716
1685.58398	-262.88493
1683.90234	-343.2019
1682.21973	-40.23287
1680.53809	-269.20254
1678.85449	-419.27047
1677.1709	100.24042
1675.48731	-247.21708
1673.80371	-436.49197
1672.11816	-302.28919
1670.43359	-179.74397
1668.74805	143.28837
1667.06152	-66.56814
1665.37598	-103.77359
1663.68848	114.5628
1662.00195	-113.07861
1660.31348	192.26887
1658.62598	201.46721
1656.9375	348.75024
1655.24805	661.04427
1653.55859	419.00545
1651.86914	536.27139
1650.17871	925.3914
1648.48828	740.96972
1646.79688	1031.73605
1645.10547	1506.1263
1643.41406	1233.36637
1641.72168	1273.96627
1640.02832	1779.99208
1638.33496	2057.34253
1636.6416	2125.91114
1634.94727	2562.37372
1633.25293	2878.12165
1631.55762	2899.42928
1629.86231	3097.22376
1628.16699	3571.71622
1626.4707	3591.8145
1624.77344	3382.17954
1623.07617	4251.15271
1621.37891	4447.10238
1619.68066	5305.78347
1617.98242	5401.02548
1616.2832	5832.65097
1614.58398	6572.6474
1612.88477	7177.2228
1611.18457	7519.60561
1609.4834	7164.91123
1607.7832	7595.18123
1606.08106	7343.1387
1604.37988	7772.67559
1602.67676	7370.9893
1600.97461	7615.6801
1599.27148	7188.37005
1597.56738	7191.97096
1595.86328	7538.79782
1594.15918	7651.49725
1592.4541	8019.8023
1590.74805	7895.00586
1589.04297	8029.0989
1587.33691	8249.14388
1585.62988	8789.37137
1583.92285	9386.69477
1582.21484	8616.71306
1580.50684	8999.98083
1578.79883	9293.71708
1577.08984	9212.72016
1575.38086	9248.75531
1573.6709	9231.47153
1571.95996	9855.09128
1570.25	9219.81812
1568.53906	9181.4509
1566.82715	9352.28332
1565.11523	8901.55365
1563.40332	8762.65139
1561.69043	8424.47192
1559.97656	8432.71837
1558.26269	8214.19807
1556.54883	8193.6483
1554.83398	8027.26681
1553.11914	8308.26304
1551.4043	7938.49384
1549.6875	8289.8122
1547.97168	7940.70142
1546.25488	7934.481
1544.53711	7254.88496
1542.82031	6272.09103
1541.10156	6723.31449
1539.38281	6137.29171
1537.66406	6050.06473
1535.94434	5974.77589
1534.22461	5382.32431
1532.50488	5924.38595
1530.78418	5712.80956
1529.0625	5737.43269
1527.34082	5908.47761
1525.61914	6006.92474
1523.89648	5957.48042
1522.17383	6060.5339
1520.45019	5940.50199
1518.72656	6179.42625
1517.00195	6515.66979
1515.27734	5931.48529
1513.55176	6306.9213
1511.82617	5986.97054
1510.09961	5323.65009
1508.37402	4787.49871
1506.64648	4206.76725
1504.91894	4201.7665
1503.19141	3543.06477
1501.46289	3102.68357
1499.73438	3064.05193
1498.00488	2280.96537
1496.27539	1715.07732
1494.54492	1467.56446
1492.81445	1316.2798
1491.08398	1600.49026
1489.35254	1241.27842
1487.62012	644.11544
1485.88769	957.0542
1484.15527	158.48694
1482.42188	658.12438
1480.68848	573.66591
1478.9541	516.30258
1477.21973	362.67043
1475.48438	-127.70617
1473.74902	-144.24883
1472.01269	-382.30195
1470.27637	-404.45302
1468.54004	-252.27181
1466.80273	-9.69141
1465.06445	-10.79789
1463.32715	531.43784
1461.58789	147.1228
1459.84863	371.57283
1458.10938	292.01587
1456.36914	1019.25496
1454.62891	1105.82929
1452.88867	1551.40458
1451.14648	1642.75616
1449.40527	1513.98247
1447.66309	1821.4891
1445.91992	2045.70252
1444.17676	1414.06551
1442.43359	1536.33664
1440.68945	1377.31598
1438.94531	814.55293
1437.20019	225.19961
1435.4541	273.30636
1433.70898	309.48916
1431.96191	-283.7589
1430.21582	-349.5846
1428.46875	-270.76031
1426.7207	-694.58192
1424.97266	177.81187
1423.22363	-35.29326
1421.47461	169.7325
1419.72559	-78.46847
1417.97559	183.41142
1416.22461	620.34947
1414.47461	678.28163
1412.72266	971.3299
1410.9707	1112.83174
1409.21875	1506.17066
1407.46582	1985.07312
1405.71289	1707.23026
1403.95898	1947.16496
1402.20508	1785.69671
1400.45117	2418.42978
1398.69531	3443.09744
1396.94043	3912.30581
1395.18457	4632.43744
1393.42773	6664.53574
1391.6709	7769.71771
1389.91406	9768.78585
1388.15625	11322.24852
1386.39844	11956.65515
1384.63965	12742.59816
1382.87988	12711.01805
1381.12109	11580.42551
1379.36035	10382.9295
1377.60059	9664.28266
1375.83887	8517.01978
1374.07813	7053.84994
1372.31641	6134.96034
1370.55371	5705.17243
1368.79102	5090.59758
1367.02734	4798.5741
1365.26367	4434.08143
1363.5	3885.83099
1361.73535	3888.31366
1359.96973	4113.24076
1358.2041	3881.03208
1356.43848	2970.61828
1354.67188	3220.92672
1352.90527	3174.16038
1351.13769	3231.3835
1349.37012	3435.10373
1347.60156	3758.44838
1345.83301	3733.34076
1344.06348	4075.64654
1342.29394	5091.18489
1340.52344	4707.15616
1338.75293	4970.60005
1336.98144	4627.61617
1335.20996	4860.44105
1333.4375	4869.08673
1331.66504	4778.34172
1329.89258	4630.78553
1328.11914	4441.31315
1326.34473	4516.37986
1324.57031	4672.89945
1322.7959	5017.50497
1321.02051	5237.94229
1319.24414	5383.6657
1317.46875	5620.52097
1315.69141	5692.88356
1313.91406	6038.9106
1312.13672	5651.2428
1310.3584	5925.88725
1308.58008	6160.32827
1306.80078	6048.08272
1305.02148	6177.66294
1303.24121	6505.55274
1301.46094	6174.736
1299.67969	5927.1554
1297.89844	5864.11073
1296.11621	5827.02749
1294.33398	6054.94411
1292.55176	5433.25754
1290.76856	5763.09497
1288.98438	5713.65202
1287.20019	5172.17596
1285.41504	4521.28812
1283.62988	4413.27515
1281.84473	4413.66612
1280.05859	3921.57111
1278.27148	4272.199
1276.48438	3637.82951
1274.69727	3917.41763
1272.90918	3451.88719
1271.12109	3448.74912
1269.33203	3325.42372
1267.54199	3183.93839
1265.75195	2939.05158
1263.96191	2876.85934
1262.1709	2825.87555
1260.37988	2612.83363
1258.58789	2750.68368
1256.7959	2617.88253
1255.00293	2583.41692
1253.20996	2921.98203
1251.41602	2601.9539
1249.62207	2339.25446
1247.82715	2815.87164
1246.03223	2617.7608
1244.23633	2672.23889
1242.44043	2637.41343
1240.64356	2240.07904
1238.84668	2509.00888
1237.04883	1869.21034
1235.25098	2046.65175
1233.45313	1983.7919
1231.6543	1696.45094
1229.85449	1996.57507
1228.05469	1310.32208
1226.25391	1333.21095
1224.45313	1076.38086
1222.65234	680.24576
1220.84961	597.48785
1219.04785	639.10557
1217.24512	-213.35624
1215.44141	-31.82869
1213.63769	-342.44488
1211.83398	-396.42651
1210.0293	-195.89301
1208.22363	418.28291
1206.41797	711.6174
1204.61231	624.19107
1202.80566	1395.80826
1200.99805	1383.96847
1199.19043	1537.09983
1197.38281	1075.33922
1195.57422	1097.73998
1193.76465	806.19
1191.95508	1035.3134
1190.14551	569.84348
1188.33496	491.25555
1186.52441	126.30048
1184.71289	-17.51193
1182.90039	-120.34716
1181.08789	-415.39115
1179.27539	-445.93173
1177.46191	-61.29218
1175.64844	-353.23101
1173.83398	-109.22072
1172.01856	167.89968
1170.20313	123.60638
1168.38769	725.81203
1166.57129	1030.79396
1164.75488	836.11786
1162.9375	916.07924
1161.11914	558.56177
1159.30078	905.76516
1157.48242	1286.10831
1155.66309	1614.78143
1153.84375	1675.96616
1152.02344	1774.33867
1150.20313	1615.16724
1148.38184	2270.33752
1146.55957	2369.45001
1144.73731	2334.45228
1142.91504	2749.44888
1141.0918	2579.18916
1139.26856	2261.66674
1137.44434	1849.89005
1135.61914	2181.9844
1133.79394	2262.94126
1131.96875	2545.37569
1130.14258	2388.66079
1128.31641	1757.6226
1126.48926	1542.37207
1124.66113	1214.85656
1122.83398	921.90328
1121.00488	1003.99488
1119.17578	585.48249
1117.34668	628.1146
1115.5166	811.52069
1113.68555	432.44608
1111.85449	608.0122
1110.02344	605.32932
1108.19141	545.17917
1106.35938	602.70145
1104.52637	758.70181
1102.69238	987.28174
1100.8584	942.23616
1099.02441	617.10162
1097.18945	974.43899
1095.35352	406.778
1093.51758	870.8962
1091.68164	504.00021
1089.84473	713.86917
1088.00684	1004.72094
1086.16894	1089.29246
1084.33106	1259.60685
1082.49219	963.51723
1080.65234	1224.28572
1078.8125	1502.00342
1076.97168	1063.9933
1075.13086	1336.72279
1073.29004	1177.84157
1071.44824	1098.00346
1069.60547	859.19327
1067.76269	998.14049
1065.91894	1360.47269
1064.07519	1325.91338
1062.23047	1540.34828
1060.38574	1457.96457
1058.54102	1809.69591
1056.69434	2362.51934
1054.84863	2463.69569
1053.00098	2837.1717
1051.1543	3355.39113
1049.30566	2984.96825
1047.45801	3074.54826
1045.6084	2449.71967
1043.75977	2221.21213
1041.90918	1917.71197
1040.05859	1357.22631
1038.20801	1251.4259
1036.35644	567.60022
1034.50488	84.48042
1032.65234	132.29035
1030.79981	214.64702
1028.94629	-205.84291
1027.0918	-291.7245
1025.23731	-423.46069
1023.38281	-299.47772
1021.52734	-118.42921
1019.6709	68.59004
1017.81445	474.98027
1015.95801	665.21271
1014.10059	1020.87342
1012.24219	1294.53306
1010.38379	1614.50531
1008.52539	1934.50713
1006.66602	2514.8294
1004.80566	2903.64569
1002.94531	3414.89267
1001.08398	3661.22884
999.22266	3460.05627
997.36035	3302.39576
995.49805	2741.88327
993.63477	2410.41183
991.77148	2086.60347
989.90723	2100.65377
988.04297	2058.16608
986.17773	1752.36069
984.3125	1817.83525
982.44629	1953.60391
980.5791	2059.06321
978.71191	2193.33866
976.84473	2572.31901
974.97656	2674.87355
973.10742	2736.73844
971.23828	2781.32883
969.36914	3204.41456
967.49902	3415.93594
965.62793	3452.60448
963.75684	3441.93313
961.88477	3588.21463
960.0127	3505.37428
958.13965	3292.86877
956.2666	3473.07
954.39355	3734.9428
952.51855	3574.19821
950.64355	3829.12366
948.76855	3520.35248
946.89258	3549.50596
945.0166	3805.975
943.13965	3816.8396
941.2627	3783.05707
939.38477	4150.09327
937.50586	4014.88854
935.62695	3829.50156
933.74707	3649.03453
931.86719	3476.23042
929.9873	3069.55266
928.10645	2583.96675
926.22461	2786.53281
924.34277	2449.56579
922.45996	2075.58688
920.57715	2238.20706
918.69336	1960.4371
916.80957	1764.71558
914.9248	1590.5209
913.03906	1382.01535
911.1543	1208.90365
909.26758	784.90162
907.38086	740.29077
905.49414	336.07715
903.60645	246.96681
901.71777	408.61146
899.8291	538.55324
897.93945	219.18318
896.0498	-49.95515
894.15918	83.61449
892.26855	-331.00395
890.37695	-345.82804
888.48535	-291.16584
886.59277	-166.12053
884.7002	-386.6896
882.80664	-132.0477
880.91211	-175.64762
879.01758	194.51367
877.12305	-61.02034
875.22754	-10.17073
873.33105	101.75289
871.43457	-180.18012
869.53711	-366.65963
867.63965	-113.1029
865.74121	-229.06519
863.84277	-238.62825
861.94336	-193.5446
860.04395	-393.83117
858.14355	-53.98133
856.24219	-135.66839
854.34082	-105.47369
852.43945	-336.87155
850.53711	-285.77847
848.63379	-58.37591
846.73047	-372.42308
844.82617	-13.59928
842.92188	-385.60447
841.0166	-145.76905
839.11133	186.42458
837.20508	434.3193
835.29883	702.84587
833.3916	559.90154
831.4834	732.01432
829.5752	54.67147
827.66699	-325.81024
825.75684	-145.11548
823.84766	-27.13756
821.9375	-289.35231
820.02637	-490.94324
818.11426	-340.19124
816.20313	-694.89127
814.29004	-463.47011
812.37695	-640.93078
810.46387	-458.98261
808.5498	-12.23013
806.63477	-161.76464
804.71973	-213.03364
802.80371	-435.18221
800.8877	-329.312
798.9707	-102.40662
797.05371	-231.94403
795.13574	-383.85126
793.21777	-208.91294
791.29883	-39.98005
789.37891	-153.8154
787.45898	-185.75432
785.53906	-101.13738
783.61719	-69.77446
781.69629	-234.90333
779.77344	-288.8388
777.85156	29.14695
775.92773	-52.53852
774.00391	16.08586
772.08008	-216.15515
770.15527	-95.77746
768.22949	471.67371
766.30371	155.58975
764.37793	31.73153
762.4502	126.3835
760.52344	83.6207
758.59473	80.07452
756.66602	-115.25676
754.7373	-114.06883
752.80762	-324.50586
750.87695	-343.9341
748.94629	-57.18945
747.01563	-545.88152
745.08301	-211.7806
743.15137	-228.96098
741.21777	-137.11575
739.28418	-154.9573
737.35059	-205.33782
735.41602	-92.42425
733.48047	-378.19022
731.54492	-249.74091
729.60938	-198.30715
727.67188	-267.25409
725.73535	-262.88177
723.79688	-88.37219
721.8584	-460.42811
719.91992	68.37913
717.98047	312.8877
716.04004	161.21478
714.09961	266.03179
712.1582	322.66988
710.2168	173.05109
708.27441	293.12332
706.33203	154.55761
704.38867	526.33323
702.44434	751.24237
700.5	1020.49036
698.55566	1256.44248
696.61035	1434.74147
694.66406	1578.79166
692.7168	2419.09635
690.77051	2731.06372
688.82227	3373.13602
686.87402	3884.05392
684.92578	4573.36331
682.97559	6050.76827
681.02637	6851.36727
679.0752	7897.23408
677.125	9012.70159
675.17285	9157.19983
673.2207	8783.21422
671.26855	8206.27278
669.31543	7760.4273
667.36133	7087.34535
665.40723	6388.05233
663.45215	6543.33058
661.49707	5938.1658
659.54102	5146.85618
657.58398	4579.90869
655.62695	4207.41784
653.66895	3857.12624
651.71094	3405.29794
649.75195	3735.48576
647.79297	3453.41771
645.83301	3704.73779
643.87305	4120.32737
641.91211	4546.1351
639.9502	4753.17495
637.98828	5309.8895
636.02539	6237.30959
634.0625	5893.32576
632.09863	6636.24637
630.13379	6779.66145
628.16895	6860.31726
626.20313	6714.01582
624.2373	6570.96317
622.27148	5988.81501
620.30371	5777.24274
618.33594	5361.07548
616.36816	5296.34864
614.39941	4839.00104
612.42969	4595.67845
610.45996	4418.41276
608.48926	3888.85833
606.51855	3269.76723
604.54688	2813.77375
602.57422	2397.16255
600.60156	1932.84611
598.62793	1843.86373
596.6543	1092.38066
594.67969	979.20214
592.70508	651.57832
590.72949	503.8692
588.75293	264.53243
586.77637	103.28722
584.79883	-207.70059
582.82129	-245.14295
580.84277	-407.92648
578.86426	-185.24587
576.88477	-427.56601
574.9043	-67.0431
572.92383	-96.2202
570.94238	303.39197
568.96094	693.04784
566.97852	1105.02388
564.99512	1091.48465
563.01172	1021.17026
561.02734	1111.21697
559.04297	1251.74586
557.05762	981.40775
555.07227	775.54863
553.08594	608.38417
551.09863	-71.71019
549.11133	-403.11257