#Wave		#Intensity
1800.532227	27849.857422
1799.562500	27824.169922
1798.592773	27923.906250
1797.623047	28056.978516
1796.653320	28041.103516
1795.682617	27514.468750
1794.712891	27701.427734
1793.742188	28265.458984
1792.771484	27744.220703
1791.800781	27597.621094
1790.829102	28217.738281
1789.858398	28050.591797
1788.886719	27660.521484
1787.915039	28218.750000
1786.943359	27903.099609
1785.970703	27871.902344
1784.999023	28237.673828
1784.026367	28219.222656
1783.053711	28052.296875
1782.081055	27921.269531
1781.107422	27928.476563
1780.134766	28104.537109
1779.161133	28034.964844
1778.187500	28341.359375
1777.213867	28310.117188
1776.239258	28023.246094
1775.265625	28045.750000
1774.291016	28408.109375
1773.316406	28558.267578
1772.341797	28406.951172
1771.366211	28368.062500
1770.391602	28472.173828
1769.416016	28257.138672
1768.440430	28200.433594
1767.464844	28378.513672
1766.488281	28472.328125
1765.512695	28377.345703
1764.536133	28514.474609
1763.559570	28304.781250
1762.583008	28189.492188
1761.605469	28535.566406
1760.628906	28639.421875
1759.651367	28493.556641
1758.673828	28775.677734
1757.696289	28245.292969
1756.717773	28736.132813
1755.740234	28908.568359
1754.761719	28185.037109
1753.783203	28413.492188
1752.804688	28878.458984
1751.825195	28877.753906
1750.846680	28798.212891
1749.867188	28746.667969
1748.887695	28623.964844
1747.908203	28620.763672
1746.927734	28823.388672
1745.947266	28934.472656
1744.967773	29159.810547
1743.987305	28879.687500
1743.005859	28752.017578
1742.025391	29223.490234
1741.043945	29243.003906
1740.063477	28960.544922
1739.081055	29033.376953
1738.099609	29108.714844
1737.118164	29359.003906
1736.135742	29256.761719
1735.153320	29248.351563
1734.170898	29260.216797
1733.188477	29038.955078
1732.206055	28914.050781
1731.222656	29280.582031
1730.239258	28998.666016
1729.255859	29040.947266
1728.272461	29095.865234
1727.288086	29307.673828
1726.304688	29144.902344
1725.320313	29518.525391
1724.335938	29370.947266
1723.350586	29410.562500
1722.366211	29713.109375
1721.380859	29742.525391
1720.395508	29365.027344
1719.410156	29417.240234
1718.424805	29431.535156
1717.439453	29410.460938
1716.453125	29530.812500
1715.466797	29287.541016
1714.480469	29513.884766
1713.494141	29321.187500
1712.506836	29830.035156
1711.519531	29566.712891
1710.533203	30002.158203
1709.544922	29862.468750
1708.557617	29679.972656
1707.570313	29686.601563
1706.582031	29597.460938
1705.593750	29873.710938
1704.605469	29749.294922
1703.616211	29360.462891
1702.627930	30004.244141
1701.638672	29545.021484
1700.649414	29629.689453
1699.660156	29462.656250
1698.670898	29668.080078
1697.680664	29752.667969
1696.690430	29565.583984
1695.700195	29871.445313
1694.709961	29334.943359
1693.719727	29668.375000
1692.728516	29534.226563
1691.738281	29789.587891
1690.747070	29542.421875
1689.754883	29639.443359
1688.763672	29693.736328
1687.771484	29343.800781
1686.780273	29558.773438
1685.788086	30012.066406
1684.794922	29880.562500
1683.802734	29854.468750
1682.809570	29740.603516
1681.817383	29935.210938
1680.823242	29904.103516
1679.830078	30108.621094
1678.836914	29774.257813
1677.842773	30269.357422
1676.848633	30173.070313
1675.854492	30462.517578
1674.860352	30421.314453
1673.865234	29957.033203
1672.871094	30634.308594
1671.875977	30625.623047
1670.880859	30807.091797
1669.885742	30578.242188
1668.889648	30674.609375
1667.893555	30880.958984
1666.897461	31007.222656
1665.901367	30995.962891
1664.905273	31179.625000
1663.908203	30886.005859
1662.912109	31371.867188
1661.915039	31038.363281
1660.917969	32100.789063
1659.919922	31445.228516
1658.922852	31586.136719
1657.924805	31916.640625
1656.926758	32000.009766
1655.928711	31811.449219
1654.929688	32076.859375
1653.931641	32327.199219
1652.932617	32163.611328
1651.933594	32603.251953
1650.934570	33147.375000
1649.934570	33138.183594
1648.935547	32957.121094
1647.935547	33513.285156
1646.935547	33202.742188
1645.935547	33534.585938
1644.934570	34164.957031
1643.933594	34041.093750
1642.933594	34392.464844
1641.931641	34728.765625
1640.930664	35054.980469
1639.929688	35383.550781
1638.927734	36000.343750
1637.925781	35968.207031
1636.923828	36298.867188
1635.921875	37459.171875
1634.918945	36686.562500
1633.916016	37550.792969
1632.913086	38019.898438
1631.910156	38305.121094
1630.907227	39297.550781
1629.903320	39458.324219
1628.900391	40288.859375
1627.896484	39764.789063
1626.891602	40885.062500
1625.887695	41655.292969
1624.882813	42375.632813
1623.878906	42899.890625
1622.874023	43131.546875
1621.868164	43913.078125
1620.863281	43743.187500
1619.857422	44105.769531
1618.851563	44886.621094
1617.845703	45513.679688
1616.839844	45501.980469
1615.833008	46024.738281
1614.827148	46945.562500
1613.820313	47687.929688
1612.813477	48301.410156
1611.805664	48800.914063
1610.798828	49364.476563
1609.791016	50261.437500
1608.783203	50851.648438
1607.775391	51705.945313
1606.767578	52900.718750
1605.758789	53270.261719
1604.750000	53926.031250
1603.741211	54391.472656
1602.732422	55614.339844
1601.723633	56572.703125
1600.713867	57283.992188
1599.704102	58803.941406
1598.694336	59748.734375
1597.684570	60325.812500
1596.673828	61925.542969
1595.664063	62883.906250
1594.653320	63625.062500
1593.642578	65203.429688
1592.630859	66522.562500
1591.620117	67516.132813
1590.608398	68588.078125
1589.596680	69945.085938
1588.584961	70619.898438
1587.573242	71018.882813
1586.560547	72487.718750
1585.547852	73077.976563
1584.535156	74508.898438
1583.522461	75098.500000
1582.509766	75505.984375
1581.496094	76412.125000
1580.482422	77981.226563
1579.468750	78090.648438
1578.455078	79454.937500
1577.440430	80113.992188
1576.426758	80829.234375
1575.412109	81725.796875
1574.397461	82352.078125
1573.381836	83718.992188
1572.367188	83996.304688
1571.351563	84952.789063
1570.335938	86146.703125
1569.320313	86668.468750
1568.304688	87687.523438
1567.288086	87846.109375
1566.271484	89315.273438
1565.254883	89581.218750
1564.238281	90527.820313
1563.221680	91474.039063
1562.204102	92390.484375
1561.186523	92332.523438
1560.168945	93290.007813
1559.151367	93151.148438
1558.132813	93530.851563
1557.115234	93973.976563
1556.096680	93947.507813
1555.078125	94383.023438
1554.058594	94549.531250
1553.040039	95104.460938
1552.020508	94826.148438
1551.000977	95058.390625
1549.981445	95683.671875
1548.960938	96052.351563
1547.941406	97223.914063
1546.920898	97401.773438
1545.900391	97933.335938
1544.879883	98886.679688
1543.858398	99800.609375
1542.836914	100840.953125
1541.815430	101783.351563
1540.793945	102615.679688
1539.772461	102385.187500
1538.750000	102824.789063
1537.728516	103712.406250
1536.706055	103849.554688
1535.683594	104575.882813
1534.660156	105194.796875
1533.637695	105606.578125
1532.614258	105317.359375
1531.590820	107526.843750
1530.566406	108290.570313
1529.542969	109654.664063
1528.518555	110830.968750
1527.494141	111967.898438
1526.469727	113077.625000
1525.445313	114597.539063
1524.420898	115424.453125
1523.395508	116610.492188
1522.370117	117363.789063
1521.344727	118031.789063
1520.318359	118947.109375
1519.292969	119434.906250
1518.266602	118680.148438
1517.240234	118556.453125
1516.213867	117860.382813
1515.186523	117508.937500
1514.159180	117450.992188
1513.131836	118163.882813
1512.104492	118912.828125
1511.077148	119440.968750
1510.049805	119833.234375
1509.021484	119973.437500
1507.993164	119823.000000
1506.964844	120381.968750
1505.935547	119568.281250
1504.907227	118730.710938
1503.877930	118101.554688
1502.848633	117791.968750
1501.818359	116280.484375
1500.789063	115337.851563
1499.758789	115705.906250
1498.728516	114427.796875
1497.698242	114049.156250
1496.667969	113412.148438
1495.636719	113268.171875
1494.606445	112472.171875
1493.575195	112598.867188
1492.542969	112090.593750
1491.511719	111464.257813
1490.479492	110915.398438
1489.448242	110166.500000
1488.415039	109217.703125
1487.382813	107485.515625
1486.350586	107171.765625
1485.317383	107759.710938
1484.284180	106513.304688
1483.250977	105571.007813
1482.216797	105746.937500
1481.183594	105296.546875
1480.149414	104634.406250
1479.115234	103905.125000
1478.081055	104013.828125
1477.045898	103032.250000
1476.011719	102426.437500
1474.976563	101856.953125
1473.941406	100994.265625
1472.905273	100463.773438
1471.870117	99676.234375
1470.833984	99425.046875
1469.797852	98277.554688
1468.761719	98142.078125
1467.725586	97485.367188
1466.688477	96956.203125
1465.651367	96957.937500
1464.614258	96008.960938
1463.577148	95634.031250
1462.539063	94844.085938
1461.501953	94954.195313
1460.463867	94104.734375
1459.424805	93562.601563
1458.386719	93485.859375
1457.347656	91992.328125
1456.309570	91328.703125
1455.270508	90368.203125
1454.230469	89808.195313
1453.191406	89016.062500
1452.151367	88102.117188
1451.111328	87152.625000
1450.071289	86727.773438
1449.031250	85360.093750
1447.990234	85160.710938
1446.950195	84475.742188
1445.909180	84281.390625
1444.867188	83864.718750
1443.826172	82836.132813
1442.784180	81984.851563
1441.742188	81889.140625
1440.700195	80892.640625
1439.658203	80601.289063
1438.616211	80111.812500
1437.573242	79880.429688
1436.530273	79140.609375
1435.487305	78720.937500
1434.443359	77611.734375
1433.400391	77519.429688
1432.356445	77064.554688
1431.312500	77275.296875
1430.267578	77614.703125
1429.223633	77152.921875
1428.178711	77170.429688
1427.133789	77433.382813
1426.088867	77836.789063
1425.043945	78244.796875
1423.998047	77973.867188
1422.952148	78750.742188
1421.906250	79198.757813
1420.860352	79306.234375
1419.813477	79537.398438
1418.767578	79651.882813
1417.720703	79804.375000
1416.673828	80166.085938
1415.625977	80059.226563
1414.579102	79743.226563
1413.531250	79840.890625
1412.483398	78736.140625
1411.435547	78677.164063
1410.386719	77147.937500
1409.337891	76709.343750
1408.290039	76448.992188
1407.240234	75661.773438
1406.191406	74048.960938
1405.141602	73495.085938
1404.092773	73264.062500
1403.042969	72950.117188
1401.992188	72154.921875
1400.942383	72161.390625
1399.891602	71933.187500
1398.840820	70885.101563
1397.790039	70707.000000
1396.739258	70446.062500
1395.687500	70050.226563
1394.635742	70040.523438
1393.583984	70108.937500
1392.532227	69914.593750
1391.480469	69315.664063
1390.427734	69526.140625
1389.375000	69802.750000
1388.322266	69790.718750
1387.269531	70346.164063
1386.215820	70785.546875
1385.162109	71411.453125
1384.108398	72287.585938
1383.054688	72801.882813
1382.000977	73363.195313
1380.946289	73744.804688
1379.891602	74164.023438
1378.836914	74422.539063
1377.782227	73498.539063
1376.726563	73613.140625
1375.670898	73064.781250
1374.615234	72410.500000
1373.559570	71973.437500
1372.502930	72036.375000
1371.447266	71080.984375
1370.390625	70062.343750
1369.333984	69922.992188
1368.276367	68864.960938
1367.219727	68292.546875
1366.162109	68052.375000
1365.104492	68280.804688
1364.046875	67664.125000
1362.988281	67949.015625
1361.929688	67466.757813
1360.871094	67450.460938
1359.812500	67238.968750
1358.753906	67034.609375
1357.694336	66820.921875
1356.634766	67352.398438
1355.575195	67063.531250
1354.515625	66429.421875
1353.456055	66913.656250
1352.395508	67158.140625
1351.334961	66545.523438
1350.274414	66721.906250
1349.212891	66628.304688
1348.152344	66600.437500
1347.090820	66614.812500
1346.029297	66842.617188
1344.966797	65595.296875
1343.905273	65443.390625
1342.842773	64928.214844
1341.780273	64635.886719
1340.717773	64603.761719
1339.655273	64393.609375
1338.591797	64539.542969
1337.528320	64235.812500
1336.464844	64060.972656
1335.401367	63844.066406
1334.336914	63360.468750
1333.272461	63826.984375
1332.208008	63930.722656
1331.143555	63393.601563
1330.079102	63174.703125
1329.013672	63103.167969
1327.948242	63169.562500
1326.882813	63289.667969
1325.817383	63393.367188
1324.750977	63576.437500
1323.684570	63673.019531
1322.618164	63970.355469
1321.551758	64188.195313
1320.484375	64363.933594
1319.417969	64581.593750
1318.350586	64134.277344
1317.282227	64167.628906
1316.214844	64308.226563
1315.146484	64726.210938
1314.079102	64901.593750
1313.009766	64899.781250
1311.941406	65177.570313
1310.873047	65061.546875
1309.803711	65933.085938
1308.734375	65877.492188
1307.665039	66715.898438
1306.594727	67128.000000
1305.525391	67865.726563
1304.455078	68900.953125
1303.384766	69135.546875
1302.313477	69679.351563
1301.243164	70281.054688
1300.171875	71135.898438
1299.100586	71441.875000
1298.028320	72242.664063
1296.957031	72741.101563
1295.884766	73453.015625
1294.812500	73026.710938
1293.740234	72858.304688
1292.667969	72942.984375
1291.594727	73111.171875
1290.521484	73276.968750
1289.448242	73062.226563
1288.375000	73313.773438
1287.300781	73555.937500
1286.226563	73355.171875
1285.152344	73893.914063
1284.078125	74460.234375
1283.003906	75114.359375
1281.928711	76310.273438
1280.853516	76171.656250
1279.778320	76301.687500
1278.703125	76966.445313
1277.626953	76232.921875
1276.550781	76265.656250
1275.474609	75983.726563
1274.398438	76152.968750
1273.321289	75584.398438
1272.245117	75265.773438
1271.167969	74822.445313
1270.089844	75028.750000
1269.012695	74317.601563
1267.934570	73662.195313
1266.856445	73686.125000
1265.778320	73483.734375
1264.700195	73424.570313
1263.621094	73370.039063
1262.541992	73421.687500
1261.462891	73004.914063
1260.383789	72173.070313
1259.304688	71786.703125
1258.224609	71635.703125
1257.144531	71242.687500
1256.064453	70962.773438
1254.983398	70427.171875
1253.902344	70398.671875
1252.822266	70305.687500
1251.740234	70459.156250
1250.659180	70619.460938
1249.578125	70708.335938
1248.496094	71361.054688
1247.414063	72374.781250
1246.331055	72532.234375
1245.249023	73462.476563
1244.166016	73628.835938
1243.083008	73553.695313
1242.000000	73952.125000
1240.916016	73803.398438
1239.833008	74261.343750
1238.749023	74126.390625
1237.665039	74175.242188
1236.580078	74795.843750
1235.496094	73609.351563
1234.411133	73924.523438
1233.326172	73922.867188
1232.241211	73223.703125
1231.155273	73469.921875
1230.069336	73727.507813
1228.983398	73698.359375
1227.897461	73552.296875
1226.811523	74151.195313
1225.724609	73507.835938
1224.637695	72965.539063
1223.550781	72986.945313
1222.463867	72651.085938
1221.375977	71935.289063
1220.288086	72210.976563
1219.200195	70916.531250
1218.112305	70384.585938
1217.023438	70205.156250
1215.934570	70730.273438
1214.845703	70713.203125
1213.756836	70810.453125
1212.667969	70557.929688
1211.578125	71157.929688
1210.488281	71577.171875
1209.398438	71893.437500
1208.307617	72581.835938
1207.217773	73982.375000
1206.126953	73781.984375
1205.036133	74464.976563
1203.944336	75227.554688
1202.853516	75401.187500
1201.761719	75433.312500
1200.669922	75932.929688
1199.578125	76464.257813
1198.485352	76831.226563
1197.392578	76940.500000
1196.299805	77017.820313
1195.207031	77514.281250
1194.114258	78702.953125
1193.020508	79394.687500
1191.926758	79794.703125
1190.833008	80476.804688
1189.739258	81390.742188
1188.644531	81521.593750
1187.549805	82164.218750
1186.455078	82322.132813
1185.360352	82982.500000
1184.264648	83551.648438
1183.168945	84661.515625
1182.073242	85461.851563
1180.977539	86343.640625
1179.880859	86189.257813
1178.785156	87415.710938
1177.688477	87828.789063
1176.590820	88888.656250
1175.494141	89662.109375
1174.396484	90389.843750
1173.298828	91053.750000
1172.201172	90860.015625
1171.103516	91630.109375
1170.004883	92304.656250
1168.906250	92706.914063
1167.807617	93650.625000
1166.708984	94399.078125
1165.609375	95373.742188
1164.510742	96024.125000
1163.411133	96440.992188
1162.310547	97333.101563
1161.210938	97668.031250
1160.110352	98914.765625
1159.009766	99192.648438
1157.909180	99427.437500
1156.807617	101009.968750
1155.707031	100929.976563
1154.605469	101761.007813
1153.502930	101852.648438
1152.401367	102730.578125
1151.298828	103382.226563
1150.197266	103809.984375
1149.093750	103677.531250
1147.991211	104098.265625
1146.887695	104521.070313
1145.785156	104320.820313
1144.681641	104596.734375
1143.577148	104116.828125
1142.473633	104710.648438
1141.369141	103545.429688
1140.264648	104078.250000
1139.160156	103423.015625
1138.054688	103622.117188
1136.949219	102852.343750
1135.843750	102918.570313
1134.738281	101757.406250
1133.632813	100434.617188
1132.526367	99904.750000
1131.419922	98697.671875
1130.313477	97464.093750
1129.207031	96568.476563
1128.099609	95007.476563
1126.992188	93982.320313
1125.884766	92615.851563
1124.777344	91398.312500
1123.668945	90477.914063
1122.560547	88551.328125
1121.452148	88069.945313
1120.343750	87069.960938
1119.234375	85632.546875
1118.125000	83872.460938
1117.015625	83479.976563
1115.906250	81781.656250
1114.796875	80629.226563
1113.686523	79407.734375
1112.576172	78034.265625
1111.465820	76798.132813
1110.354492	76055.671875
1109.243164	74105.546875
1108.132813	73805.367188
1107.020508	72459.140625
1105.909180	71404.640625
1104.796875	70720.054688
1103.684570	69574.562500
1102.572266	68968.984375
1101.459961	68659.054688
1100.346680	68275.414063
1099.233398	68379.570313
1098.120117	67613.718750
1097.006836	67150.031250
1095.892578	66496.523438
1094.778320	66730.585938
1093.664063	65829.398438
1092.549805	65556.359375
1091.435547	64780.878906
1090.320313	65019.554688
1089.205078	64420.878906
1088.088867	64467.554688
1086.973633	63782.207031
1085.857422	63617.023438
1084.741211	63770.902344
1083.625000	63217.710938
1082.507813	62943.472656
1081.391602	63028.277344
1080.274414	62381.968750
1079.157227	62342.054688
1078.039063	61455.535156
1076.920898	61135.167969
1075.802734	60541.007813
1074.684570	60069.554688
1073.566406	59057.363281
1072.447266	59024.855469
1071.328125	58665.265625
1070.208984	57827.527344
1069.089844	57552.855469
1067.969727	57176.003906
1066.849609	56459.152344
1065.729492	55744.824219
1064.609375	55428.585938
1063.488281	55381.316406
1062.367188	54669.878906
1061.246094	54809.339844
1060.125000	54919.875000
1059.002930	54584.148438
1057.881836	53700.347656
1056.759766	53376.109375
1055.636719	53382.566406
1054.514648	53668.496094
1053.391602	52998.511719
1052.268555	53111.457031
1051.145508	53040.371094
1050.021484	53022.496094
1048.897461	53188.535156
1047.773438	52612.386719
1046.649414	52942.324219
1045.525391	52350.964844
1044.400391	52592.261719
1043.275391	51779.882813
1042.150391	51452.472656
1041.024414	50932.714844
1039.899414	50534.832031
1038.773438	50391.437500
1037.646484	49591.421875
1036.520508	49249.332031
1035.393555	49015.675781
1034.266602	48806.425781
1033.139648	48588.421875
1032.012695	48266.699219
1030.884766	48165.933594
1029.756836	48350.007813
1028.628906	48410.394531
1027.500977	48018.351563
1026.372070	47635.296875
1025.243164	47267.843750
1024.114258	47542.320313
1022.985352	47172.832031
1021.855469	46840.972656
1020.725586	46775.937500
1019.595703	46384.800781
1018.465820	46086.355469
1017.334961	45900.371094
1016.204102	45291.648438
1015.073242	44749.230469
1013.942383	44748.539063
1012.810547	44928.308594
1011.678711	44978.179688
1010.546875	45109.421875
1009.415039	45390.160156
1008.282227	45481.675781
1007.150391	45276.359375
1006.017578	45737.105469
1004.883789	45305.480469
1003.750977	46073.601563
1002.617188	46628.328125
1001.483398	46886.347656
1000.349609	47403.335938
999.214844	47151.800781
998.080078	47969.179688
996.945313	47735.175781
995.810547	47931.246094
994.674805	48289.535156
993.540039	48415.226563
992.404297	48635.132813
991.267578	49085.089844
990.131836	49701.402344
988.995117	50236.382813
987.858398	50865.328125
986.721680	51599.117188
985.583984	51596.906250
984.446289	52144.148438
983.308594	52292.828125
982.170898	53756.527344
981.033203	54057.933594
979.894531	54107.675781
978.755859	54483.218750
977.617188	54808.316406
976.477539	55323.441406
975.337891	56028.468750
974.198242	56213.187500
973.058594	57096.839844
971.918945	58154.832031
970.778320	58838.992188
969.637695	59507.574219
968.497070	60520.718750
967.355469	61116.640625
966.214844	61633.765625
965.073242	61910.738281
963.930664	62283.539063
962.789063	61941.050781
961.646484	62982.875000
960.503906	62343.992188
959.361328	62744.691406
958.217773	62938.269531
957.075195	62633.015625
955.931641	62012.152344
954.788086	61378.488281
953.643555	61437.230469
952.499023	61130.363281
951.354492	61487.187500
950.209961	61374.019531
949.065430	61356.585938
947.919922	61687.027344
946.774414	62076.015625
945.628906	62551.769531
944.482422	62742.671875
943.336914	62820.527344
942.190430	63384.851563
941.042969	62850.183594
939.896484	62606.648438
938.749023	62673.597656
937.601563	61722.761719
936.454102	61605.449219
935.305664	60932.886719
934.158203	60028.558594
933.009766	58996.687500
931.861328	58110.496094
930.711914	56880.082031
929.562500	55721.691406
928.413086	54405.652344
927.263672	53629.472656
926.114258	51838.042969
924.963867	50569.128906
923.813477	49662.222656
922.663086	48887.707031
921.511719	48210.882813
920.360352	48274.125000
919.208984	47653.941406
918.057617	47250.242188
916.906250	47367.683594
915.753906	47536.941406
914.601563	48047.531250
913.449219	48179.843750
912.295898	47657.652344
911.142578	46947.808594
909.989258	46352.695313
908.835938	45949.937500
907.682617	45536.558594
906.528320	45090.988281
905.374023	44725.417969
904.218750	44595.078125
903.064453	45439.386719
901.909180	45496.488281
900.753906	46197.988281
899.598633	46399.273438
898.442383	46141.593750
897.286133	46551.722656
896.129883	47200.703125
894.973633	46785.839844
893.817383	47735.835938
892.660156	47714.855469
891.502930	48261.894531
890.344727	48178.417969
889.187500	48600.378906
888.029297	48893.148438
886.871094	49213.730469
885.711914	49579.308594
884.553711	49927.539063
883.394531	50135.972656
882.235352	49480.863281
881.076172	49818.140625
879.916016	48968.000000
878.755859	49219.375000
877.595703	48914.816406
876.435547	48966.554688
875.274414	47999.328125
874.113281	47714.519531
872.952148	47386.945313
871.791016	47016.632813
870.628906	46852.230469
869.466797	47133.605469
868.304688	46800.000000
867.141602	46706.425781
865.979492	46533.652344
864.816406	46590.039063
863.653320	46511.542969
862.489258	46448.062500
861.326172	46318.273438
860.162109	46216.347656
858.997070	46050.300781
857.833008	46397.500000
856.667969	45904.402344
855.502930	45806.917969
854.337891	45168.843750
853.171875	45481.738281
852.006836	45333.136719
850.840820	45372.515625
849.673828	45249.613281
848.507813	44994.417969
847.340820	44918.593750
846.173828	44778.789063
845.006836	45046.480469
843.838867	44661.437500
842.671875	45012.195313
841.503906	44416.269531
840.334961	44336.386719
839.166992	44505.851563
837.998047	44100.023438
836.829102	43638.984375
835.659180	43127.035156
834.490234	42889.949219
833.320313	43044.628906
832.150391	43035.367188
830.979492	43032.496094
829.809570	43131.726563
828.638672	43230.910156
827.467773	42341.316406
826.295898	41900.656250
825.125000	42123.304688
823.953125	41995.242188
822.781250	41824.742188
821.608398	41223.136719
820.435547	40770.433594
819.263672	40360.390625
818.089844	39672.449219
816.916992	40039.535156
815.743164	39729.625000
814.569336	39354.085938
813.395508	39322.281250
812.220703	38656.496094
811.046875	38908.917969
809.872070	38709.781250
808.696289	38676.011719
807.521484	38712.167969
806.345703	37975.203125
805.169922	37806.078125
803.994141	37012.457031
802.817383	37067.980469
801.640625	36272.742188
800.463867	36097.769531
799.287109	36483.441406
798.109375	36329.648438
796.931641	36093.453125
795.753906	36366.828125
794.576172	36549.203125
793.397461	36215.906250
792.218750	36903.144531
791.040039	37459.128906
789.860352	37725.566406
788.681641	37464.074219
787.501953	37318.789063
786.322266	37059.605469
785.141602	36804.750000
783.960938	37079.468750
782.780273	37638.777344
781.599609	37723.425781
780.418945	37932.410156
779.237305	38111.792969
778.055664	38141.492188
776.873047	38765.261719
775.691406	39293.980469
774.508789	39491.859375
773.326172	40323.355469
772.142578	40125.203125
770.959961	40341.707031
769.776367	40023.707031
768.592773	40040.296875
767.408203	39785.585938
766.224609	39009.539063
765.040039	38847.648438
763.855469	38956.945313
762.669922	38051.296875
761.484375	37843.492188
760.298828	36783.046875
759.113281	36531.503906
757.927734	36059.632813
756.741211	35932.191406
755.554688	35639.023438
754.368164	35241.074219
753.180664	35554.382813
751.993164	35592.824219
750.805664	35474.000000
749.618164	35654.984375
748.429688	36428.996094
747.241211	36412.730469
746.052734	37108.726563
744.864258	36803.285156
743.674805	36841.382813
742.485352	36119.515625
741.295898	35619.824219
740.106445	35593.277344
738.916016	35227.808594
737.725586	35943.910156
736.535156	35609.886719
735.343750	35597.988281
734.152344	35527.566406
732.960938	35195.933594
731.769531	35324.121094
730.577148	35331.089844
729.385742	35298.371094
728.192383	35522.496094
727.000000	35391.625000
725.806641	35417.347656
724.614258	35620.425781
723.419922	35468.750000
722.226563	35579.953125
721.032227	35495.078125
719.837891	35695.871094
718.643555	35738.152344
717.449219	35913.792969
716.253906	35651.808594
715.058594	35777.390625
713.863281	35934.160156
712.666992	35713.976563
711.470703	36130.902344
710.274414	36441.500000
709.078125	36148.511719
707.880859	36340.382813
706.683594	35958.105469
705.486328	35646.691406
704.289063	35453.917969
703.090820	34945.277344
701.892578	34975.093750
700.694336	34982.042969
699.495117	34706.480469
698.296875	34767.472656
697.097656	35081.750000
695.897461	34802.187500
694.698242	34831.984375
693.498047	34988.339844
692.297852	35125.953125
691.097656	35037.429688
689.896484	35413.433594
688.695313	35503.175781
687.494141	35503.746094
686.292969	35910.480469
685.090820	36010.410156
683.888672	36251.140625
682.686523	36684.363281
681.483398	37338.937500
680.280273	37840.042969
679.077148	38351.273438
677.874023	38471.214844
676.670898	38504.218750
675.466797	38698.523438
674.262695	39142.945313
673.057617	39287.410156
671.853516	39092.839844
670.648438	39148.386719
669.443359	38792.781250
668.237305	38575.718750
667.031250	38416.570313
665.825195	37700.035156
664.619141	37700.082031
663.413086	37493.753906
662.206055	37446.386719
660.999023	37281.453125
659.791992	36669.054688
658.583984	36531.164063
657.375977	36244.906250
656.167969	35884.570313
654.959961	35998.324219
653.750977	35180.847656
652.541992	35393.566406
651.333008	35311.718750
650.123047	35608.718750
648.914063	36109.367188
647.704102	36140.589844
646.493164	36200.605469
645.283203	36120.714844
644.072266	35921.582031
642.861328	35576.546875
641.649414	35466.003906
640.438477	35528.140625
639.226563	36134.757813
638.014648	35802.296875
636.801758	36307.945313
635.588867	36277.433594
634.375977	36702.687500
633.163086	37228.328125
631.950195	37774.257813
630.736328	38090.164063
629.522461	38740.269531
628.307617	38389.343750
627.093750	38766.410156
625.878906	39094.113281
624.664063	38647.007813
623.448242	38620.125000
622.233398	38509.265625
621.017578	38007.277344
619.800781	38091.113281
618.584961	38236.328125
617.368164	38629.121094
616.151367	38829.394531
614.934570	38906.832031
613.716797	38497.437500
612.499023	37820.339844
611.281250	37439.984375
610.062500	36548.789063
608.844727	36009.472656
607.625977	35261.992188
606.407227	35466.718750
605.187500	35134.246094
603.967773	35506.332031
602.748047	35492.437500
601.528320	35335.691406
600.307617	35017.812500
599.086914	34818.390625
597.866211	34243.781250
596.645508	33330.933594
595.423828	33166.660156
594.202148	33126.789063
592.980469	32917.800781
591.757813	32582.585938
590.535156	32145.675781
589.312500	31880.011719
588.089844	31659.253906
586.866211	31703.207031
585.642578	31710.509766
584.418945	31333.259766
583.195313	31238.925781
581.970703	31368.341797
580.746094	31396.033203
579.521484	31649.357422
578.295898	31589.580078
577.070313	31296.150391
575.844727	31356.330078
574.619141	31182.908203
573.392578	31003.468750
572.166016	31550.908203
570.939453	31633.298828
569.712891	32058.597656
568.485352	32406.613281
567.257813	32632.771484
566.029297	32739.177734
564.801758	32898.250000
563.573242	32643.732422
562.344727	33208.074219
561.115234	33099.476563
559.886719	33286.683594
558.657227	33457.601563
557.427734	33800.554688
556.197266	33989.500000
554.966797	34073.117188
553.736328	34664.593750
552.505859	34826.917969
551.274414	34756.570313
550.042969	35442.539063
548.811523	35610.644531
547.580078	36423.460938
546.347656	36738.792969
545.115234	37258.046875
543.882813	37266.019531
542.649414	37080.113281
541.416016	37491.929688
540.182617	37643.160156
538.949219	37996.140625
537.714844	38332.820313
536.480469	38955.804688
535.246094	39435.316406
534.010742	40269.500000
532.775391	41087.187500
531.540039	42337.843750
530.304688	44001.039063
529.068359	46467.335938
527.833008	50271.976563
526.595703	56876.050781
525.359375	68409.789063
524.122070	92305.421875
522.884766	143792.750000
521.647461	241961.218750
520.409180	366702.937500
519.170898	408474.843750
517.932617	316557.031250
516.694336	187503.093750
515.455078	113028.562500
514.215820	81057.632813
512.976563	66985.734375
511.736328	60064.003906
510.497070	55819.949219
509.256836	53984.808594
508.015625	52590.023438
506.774414	51711.562500
505.534180	50181.460938
504.291992	48635.988281
503.050781	46724.214844
501.808594	45011.769531
500.566406	44174.011719
499.324219	42797.542969
498.081055	42661.882813
496.837891	41476.644531
495.594727	41453.480469
494.351563	41101.957031
493.107422	41094.894531
491.863281	40791.628906
490.619141	40054.300781
489.374023	40147.488281
488.128906	39266.617188
486.883789	38798.050781
485.638672	38569.582031
484.392578	38607.042969
483.146484	38768.375000
481.900391	38765.808594
480.653320	38815.179688
479.406250	38942.402344
478.159180	38875.906250
476.912109	38879.296875
475.664063	38978.476563
474.416016	37964.296875
473.167969	37949.929688
471.918945	37943.542969
470.669922	37534.394531
469.420898	37809.167969
468.171875	37713.125000
466.921875	38240.785156
465.671875	38252.253906
464.421875	38168.117188
463.171875	38002.375000
461.920898	37410.679688
460.669922	36980.457031
459.417969	36733.496094
458.166992	36753.226563
456.915039	36707.308594
455.663086	36599.761719
454.410156	36860.066406
453.157227	37484.000000
451.904297	38065.925781
450.651367	38991.308594
449.397461	39306.464844
448.144531	39633.390625
446.889648	40041.574219
445.635742	40243.132813
444.380859	39978.207031
443.125977	39711.417969
441.871094	39226.527344
440.615234	39354.691406
439.359375	39048.550781
438.103516	39202.460938
436.847656	39011.437500
435.590820	39050.355469
434.333984	38906.992188
433.076172	38785.476563
431.819336	38473.910156
430.561523	38865.304688
429.303711	38231.218750
428.044922	38454.281250
426.787109	38839.476563
425.528320	38718.121094
424.268555	38337.750000
423.009766	38526.968750
421.750000	38724.007813
420.490234	38221.347656
419.229492	38914.300781
417.968750	38368.359375
416.708008	38476.375000
415.447266	38783.765625
414.185547	38838.335938
412.923828	38673.800781
411.662109	38913.847656
410.400391	38776.984375
409.137695	38577.062500
407.875000	38659.210938
406.612305	38445.597656
405.348633	38413.414063
404.084961	38280.738281
402.821289	37966.867188
401.556641	38246.015625
400.292969	37898.808594
