#Wave		#Intensity
1678.89356	1.66667E-7
1677.90527	290.53242
1676.91699	186.4175
1675.92871	192.61652
1674.93945	345.65405
1673.95019	296.76072
1672.96094	195.87209
1671.97168	151.2607
1670.98242	144.47881
1669.99219	320.20797
1669.00195	173.25671
1668.01172	109.5167
1667.02148	377.41467
1666.03027	37.23511
1665.03906	287.13117
1664.04883	145.6825
1663.05664	160.81418
1662.06543	-48.08824
1661.07324	126.36701
1660.08203	119.53174
1659.08984	241.53995
1658.09766	81.22493
1657.10449	74.05787
1656.11231	367.0375
1655.11914	173.10096
1654.12598	102.99939
1653.13184	322.12738
1652.13867	212.95855
1651.14453	508.60919
1650.15039	288.25364
1649.15625	227.57526
1648.16211	369.47007
1647.16699	252.40128
1646.17285	240.22148
1645.17773	454.29895
1644.18164	-48.25399
1643.18652	146.9955
1642.19043	74.40422
1641.19531	538.31439
1640.19922	269.85838
1639.20215	307.08283
1638.20606	341.97805
1637.20898	140.62896
1636.21191	70.29703
1635.21484	221.21362
1634.21777	221.67211
1633.21973	128.37977
1632.22266	426.28481
1631.22461	174.19051
1630.22656	262.099
1629.22754	142.40939
1628.22949	52.05607
1627.23047	137.34241
1626.23144	104.8463
1625.23144	113.74743
1624.23242	183.03959
1623.23242	272.48483
1622.23242	265.82555
1621.23242	348.60018
1620.23242	458.52393
1619.23242	80.82224
1618.23144	119.46587
1617.23047	86.9814
1616.22949	247.46334
1615.22754	189.28859
1614.22656	17.75184
1613.22461	329.54369
1612.22266	175.43362
1611.2207	190.09857
1610.21777	420.24355
1609.21484	426.11629
1608.21289	464.38047
1607.20898	391.14695
1606.20606	459.52224
1605.20313	603.27879
1604.19922	187.28839
1603.19531	557.88593
1602.19141	641.19529
1601.18652	828.75515
1600.18262	463.94334
1599.17773	484.39024
1598.17285	543.33099
1597.16699	540.86163
1596.16211	591.27077
1595.15625	711.93406
1594.15039	618.8832
1593.14453	626.17942
1592.13867	668.99856
1591.13184	687.97866
1590.125	623.71889
1589.11816	925.53587
1588.11133	449.64201
1587.10449	769.96849
1586.09668	780.46096
1585.08887	1130.72386
1584.08106	867.33974
1583.07324	825.54722
1582.06445	1178.50568
1581.05664	1174.50364
1580.04785	875.55328
1579.03906	1140.21271
1578.0293	1005.4645
1577.02051	1259.64443
1576.01074	1151.166
1575.00098	1082.96279
1573.99023	1241.99648
1572.98047	1329.80182
1571.96973	1038.87547
1570.95898	1050.2298
1569.94824	1352.57867
1568.9375	1326.36017
1567.92578	1285.34357
1566.91504	1240.52854
1565.90332	1455.33877
1564.89063	1462.89972
1563.87891	1492.05092
1562.86621	1570.31956
1561.85352	1676.32428
1560.84082	1781.75901
1559.82813	1583.06321
1558.81445	1976.6415
1557.80176	1815.4291
1556.78809	1797.08307
1555.77441	1884.64004
1554.75977	1916.81728
1553.74609	2125.97874
1552.73144	2021.60911
1551.7168	2064.78766
1550.70117	1660.51292
1549.68652	1929.54108
1548.6709	1709.10634
1547.65527	1731.76308
1546.63965	1623.11351
1545.62402	1470.24477
1544.60742	1682.00934
1543.59082	1361.11399
1542.57422	1078.16681
1541.55762	1364.10944
1540.54004	1323.784
1539.52344	969.98256
1538.50586	820.13527
1537.48828	985.81508
1536.46973	1117.05157
1535.45215	896.27928
1534.43359	1033.68268
1533.41504	870.99746
1532.39648	1232.47386
1531.37695	1205.14638
1530.3584	1108.8268
1529.33887	1133.32371
1528.31934	1299.70237
1527.29883	1465.47117
1526.2793	1231.06875
1525.25879	1201.22996
1524.23828	1417.28156
1523.21777	1520.4645
1522.19629	1351.14101
1521.17578	1249.56964
1520.1543	1331.57802
1519.13281	1567.36416
1518.11035	1332.21206
1517.08887	1369.04336
1516.06641	1281.92967
1515.04394	1341.63784
1514.02148	1383.32623
1512.99805	1315.34642
1511.97559	1439.90338
1510.95215	1582.15094
1509.92871	1560.81045
1508.9043	1187.51951
1507.88086	1245.85952
1506.85644	1231.55678
1505.83203	1332.59357
1504.80762	793.93663
1503.78223	997.2757
1502.75781	913.34471
1501.73242	1028.92641
1500.70703	1009.59275
1499.68066	881.7678
1498.65527	697.63975
1497.62891	659.52736
1496.60254	498.42505
1495.57617	287.57616
1494.54883	396.46189
1493.52246	303.55822
1492.49512	105.61027
1491.46777	115.69144
1490.43945	118.05367
1489.41211	34.73109
1488.38379	198.04655
1487.35547	361.24062
1486.32715	229.36436
1485.29785	335.53424
1484.26953	210.08726
1483.24023	10.89279
1482.21094	133.85856
1481.18066	164.87704
1480.15137	1.19198
1479.12109	219.92255
1478.09082	61.52361
1477.06055	53.79652
1476.0293	232.9098
1474.99805	205.44346
1473.96777	271.32654
1472.93555	452.3265
1471.9043	204.80475
1470.87207	233.73453
1469.84082	116.2767
1468.80859	324.16495
1467.77539	471.32579
1466.74316	517.15953
1465.70996	726.5615
1464.67676	698.92946
1463.64356	910.70538
1462.61035	922.48769
1461.57617	1144.2993
1460.54199	1422.26178
1459.50781	1701.78066
1458.47363	1592.51162
1457.43848	1770.9776
1456.40332	2011.99795
1455.36816	2101.05117
1454.33301	2545.29238
1453.29785	2084.15859
1452.26172	2293.64166
1451.22559	2346.51894
1450.18945	2092.30507
1449.15332	2394.46783
1448.11621	2193.04645
1447.0791	2139.11464
1446.04199	2113.73867
1445.00488	2114.11041
1443.96777	2120.60358
1442.92969	1756.57054
1441.8916	1998.5318
1440.85352	2001.10065
1439.81543	1786.02057
1438.77637	1648.32656
1437.73731	1792.86106
1436.69824	1934.70107
1435.65918	1835.07428
1434.61914	1682.19261
1433.5791	1656.86709
1432.54004	1907.82461
1431.49902	1645.87246
1430.45898	1640.24664
1429.41797	1542.32721
1428.37695	1693.42389
1427.33594	1906.02936
1426.29492	1940.6
1425.25293	2000.48948
1424.21094	1832.6944
1423.16894	1720.54043
1422.12695	1740.43675
1421.08496	1993.02155
1420.04199	1833.00852
1418.99902	1791.46572
1417.95606	2053.31224
1416.91211	1994.31468
1415.86914	2036.9374
1414.82519	2117.57005
1413.78125	2236.95612
1412.73731	2250.41575
1411.69238	2363.06989
1410.64746	2430.23411
1409.60254	2289.88987
1408.55762	2442.49209
1407.51172	2538.13629
1406.4668	2535.91282
1405.4209	2672.86009
1404.375	2833.40143
1403.32813	2436.08616
1402.28223	2545.15875
1401.23535	2683.81549
1400.18848	2790.16575
1399.14063	2725.95221
1398.09375	2749.94863
1397.0459	2749.66998
1395.99805	2757.17291
1394.95019	2789.08291
1393.90137	2942.41933
1392.85352	3061.87539
1391.80469	3090.96751
1390.75586	3015.46458
1389.70606	3232.20384
1388.65723	3220.50657
1387.60742	3016.96881
1386.55762	3279.03001
1385.50684	3298.63222
1384.45703	3386.0108
1383.40625	3189.24876
1382.35547	3364.86106
1381.30469	3316.78587
1380.25293	3405.23086
1379.20117	3409.83112
1378.14941	3326.70091
1377.09766	3480.57851
1376.0459	3463.86464
1374.99316	3343.35716
1373.94043	3411.62148
1372.88769	3243.21881
1371.83496	3368.34609
1370.78125	3437.37994
1369.72754	3531.06679
1368.67383	3543.8373
1367.62012	3313.1332
1366.56641	3752.00494
1365.51172	3772.61106
1364.45703	3573.50332
1363.40234	3520.68561
1362.34668	3560.21783
1361.29199	3699.81321
1360.23633	3558.5414
1359.17969	3606.29173
1358.12402	3618.05703
1357.06738	3423.0541
1356.01172	3430.61334
1354.95508	3323.78554
1353.89746	3508.6153
1352.84082	3087.05735
1351.7832	3055.28261
1350.72559	3117.52708
1349.66797	3020.29889
1348.60938	3139.10195
1347.55078	3143.17649
1346.49219	3036.91087
1345.43359	2790.18675
1344.375	2672.71002
1343.31543	2530.45905
1342.25586	2877.70986
1341.19629	2777.78701
1340.13672	2476.46328
1339.07617	2475.36383
1338.01563	2280.34153
1336.95508	2167.75201
1335.89453	2457.54515
1334.83301	2099.3775
1333.77148	2148.60081
1332.70996	1964.97223
1331.64844	2236.54482
1330.58594	2086.58014
1329.52441	2123.14313
1328.46191	1759.15599
1327.39941	1841.82884
1326.33594	1949.65761
1325.27246	1929.55507
1324.20898	1652.03831
1323.14551	1533.1861
1322.08203	1822.93724
1321.01758	1747.31891
1319.95313	1563.85293
1318.88867	1391.11285
1317.82422	1501.131
1316.75879	1627.24209
1315.69336	1317.47776
1314.62793	1323.43243
1313.5625	1525.75258
1312.49609	1455.21596
1311.43066	1573.52968
1310.36426	1540.16005
1309.29688	1240.04506
1308.23047	1223.652
1307.16309	1267.28066
1306.0957	1318.3469
1305.02832	933.69513
1303.95996	978.38182
1302.89258	786.81093
1301.82422	783.83209
1300.75586	709.05109
1299.68652	578.86827
1298.61816	680.48684
1297.54883	434.38403
1296.47949	518.63951
1295.40918	547.84365
1294.33984	424.94954
1293.26953	267.66104
1292.19922	229.08635
1291.12793	259.96681
1290.05762	246.59936
1288.98633	134.0939
1287.91504	166.1134
1286.84375	116.38475
1285.77148	163.12043
1284.69922	127.73873
1283.62695	91.95612
1282.55469	15.5203
1281.48144	84.19829
1280.40918	10.80343
1279.33594	63.11409
1278.26172	61.27365
1277.18848	172.17924
1276.11426	327.84841
1275.04004	224.14273
1273.96582	495.46104
1272.8916	199.28816
1271.81641	303.20296
1270.74121	371.08042
1269.66602	449.25177
1268.58984	303.94144
1267.51465	191.71502
1266.43848	452.02861
1265.36231	462.64325
1264.28516	554.52517
1263.20898	407.62122
1262.13184	309.2564
1261.05469	408.81217
1259.97656	773.61102
1258.89941	633.22614
1257.82129	767.30174
1256.74316	392.71478
1255.66504	547.25515
1254.58594	800.10931
1253.50684	769.58714
1252.42773	671.60883
1251.34863	641.93833
1250.26856	583.32159
1249.18945	934.16836
1248.10938	752.96389
1247.02832	656.58901
1245.94824	579.98338
1244.86719	791.61835
1243.78613	783.75869
1242.70508	671.30426
1241.62305	774.76528
1240.54102	632.44387
1239.45898	605.79718
1238.37695	703.55853
1237.29492	697.54209
1236.21191	695.94468
1235.12891	632.41612
1234.0459	504.69509
1232.96191	440.42063
1231.87891	487.31995
1230.79492	432.1535
1229.70996	437.28459
1228.62598	427.18671
1227.54102	272.63473
1226.45606	433.47087
1225.37109	233.33271
1224.28613	213.10016
1223.20019	414.36623
1222.11426	238.43271
1221.02832	362.63017
1219.94238	181.26058
1218.85547	78.79377
1217.76856	7.39219
1216.68164	135.01427
1215.59375	143.24636
1214.50684	120.60871
1213.41894	187.76331
1212.33106	74.55659
1211.24219	138.83967
1210.1543	-20.66154
1209.06543	-59.91211
1207.97656	177.58949
1206.88672	23.05281
1205.79785	63.63606
1204.70801	224.64815
1203.61816	231.8316
1202.52734	269.94455
1201.43652	172.61565
1200.34668	401.42535
1199.25488	443.86849
1198.16406	156.57242
1197.07227	317.02721
1195.98144	-74.17059
1194.88867	207.63968
1193.79688	256.40707
1192.7041	57.54394
1191.61231	360.88395
1190.51856	213.47233
1189.42578	92.70748
1188.33203	276.47346
1187.23828	146.75541
1186.14453	42.55272
1185.05078	78.39611
1183.95606	240.57082
1182.86133	295.03749
1181.7666	307.81922
1180.67188	186.47826
1179.57617	305.08532
1178.48047	410.79529
1177.38477	9.40498
1176.28906	117.0915
1175.19238	94.95582
1174.0957	166.71687
1172.99902	291.45039
1171.90234	339.7452
1170.80469	37.11535
1169.70703	166.07556
1168.60938	233.39458
1167.51172	69.41408
1166.41309	292.49347
1165.31445	185.7089
1164.21582	263.31637
1163.11719	394.54321
1162.01758	373.25566
1160.91797	558.46629
1159.81836	526.27509
1158.71777	540.9433
1157.61816	590.31333
1156.51758	506.23464
1155.41699	527.79197
1154.31543	431.05031
1153.21387	512.2619
1152.11231	607.7927
1151.01074	476.19116
1149.90918	526.20359
1148.80664	583.04213
1147.7041	702.38279
1146.60156	778.44073
1145.49805	880.87278
1144.39551	750.44086
1143.29199	691.22211
1142.1875	757.68378
1141.08398	983.53489
1139.97949	1004.53611
1138.875	814.04828
1137.77051	1098.52944
1136.66504	1041.94684
1135.56055	1339.14305
1134.45508	1379.5139
1133.34863	1212.40729
1132.24316	1136.60504
1131.13672	1218.11351
1130.03027	1257.27806
1128.92383	1161.13255
1127.81641	1066.62693
1126.70898	1131.53725
1125.60156	1044.73867
1124.49414	928.84308
1123.38574	1105.25543
1122.27832	1115.77041
1121.16894	992.00519
1120.06055	890.45506
1118.95117	937.25397
1117.84277	1043.60244
1116.73242	1127.59389
1115.62305	1001.47418
1114.51269	892.72963
1113.40332	620.4118
1112.29199	664.14264
1111.18164	489.3845
1110.07031	662.22866
1108.95898	581.17194
1107.84766	499.15503
1106.73633	397.51709
1105.62402	439.38104
1104.51172	574.63527
1103.39941	601.78835
1102.28613	736.86102
1101.17383	601.30853
1100.06055	856.27049
1098.94629	663.30434
1097.83301	734.74424
1096.71875	784.33803
1095.60449	809.86135
1094.49023	851.91925
1093.375	746.34096
1092.25977	703.87937
1091.14453	818.63426
1090.0293	632.92421
1088.91309	778.50246
1087.79785	516.27403
1086.68164	617.56716
1085.56445	652.8561
1084.44824	800.8987
1083.33106	882.57941
1082.21289	586.32306
1081.0957	615.31293
1079.97754	532.3856
1078.85938	575.15802
1077.74121	612.55296
1076.62305	465.39166
1075.50391	287.36561
1074.38477	368.47764
1073.26563	279.23651
1072.14551	184.34106
1071.02637	84.89361
1069.90625	140.22832
1068.78516	159.48116
1067.66504	100.45303
1066.54394	-162.29867
1065.42285	61.32622
1064.30078	182.96842
1063.17969	307.76039
1062.05762	155.33674
1060.93555	177.42301
1059.81348	267.05644
1058.69043	397.21055
1057.56738	503.55377
1056.44434	294.22231
1055.32031	418.82735
1054.19727	378.93756
1053.07324	468.58187
1051.94824	553.31012
1050.82422	866.72272
1049.69922	929.39215
1048.57422	749.60476
1047.44922	630.31146
1046.32324	501.05251
1045.19727	585.22609
1044.07129	483.18162
1042.94531	280.16959
1041.81836	249.96678
1040.69238	216.40349
1039.56445	247.25454
1038.4375	32.13378
1037.30957	90.15404
1036.18164	205.13819
1035.05371	-119.93962
1033.92578	235.86353
1032.79688	89.19888
1031.66797	77.85286
1030.53906	241.42448
1029.40918	-22.06535
1028.2793	147.65672
1027.14941	192.40835
1026.01953	113.37695
1024.88867	94.21082
1023.75879	-26.26206
1022.62695	149.43717
1021.49609	218.29015
1020.36426	280.872
1019.23242	295.75537
1018.10059	324.92426
1016.96875	261.35481
1015.83594	309.21577
1014.70313	342.40776
1013.57031	409.65157
1012.43652	517.1601
1011.30273	548.11509
1010.16895	649.70856
1009.03516	753.46584
1007.90039	984.87311
1006.7666	1094.75771
1005.63086	1478.14223
1004.49609	1583.88776
1003.36035	1961.91266
1002.22461	2087.28359
1001.08887	2172.80149
999.95313	2067.28326
998.81641	2073.58974
997.67969	2107.3054
996.54297	2224.25478
995.40527	2204.71539
994.26758	2445.70384
993.12988	2664.37002
991.99219	2796.54824
990.85352	3242.60488
989.71484	3517.55052
988.57617	3775.28261
987.4375	4125.11204
986.29785	4332.04531
985.1582	4551.30931
984.01855	4814.56907
982.87793	4998.04466
981.7373	5158.91901
980.59668	5351.41868
979.45605	5521.68854
978.31445	5434.47369
977.17285	5574.93626
976.03125	5448.2302
974.88965	5664.31158
973.74707	5691.06484
972.60449	5819.92226
971.46191	6120.17226
970.31836	6071.08502
969.17578	6197.37669
968.03223	6275.40794
966.8877	6490.96198
965.74414	6628.84088
964.59961	6724.28815
963.45508	6728.74388
962.30957	6806.83828
961.16406	7153.10846
960.01855	7178.27838
958.87305	7066.21263
957.72754	7367.79921
956.58105	7148.68789
955.43457	7416.56744
954.28809	7565.31419
953.14063	7590.32135
951.99316	7791.52122
950.8457	7827.05442
949.69727	8073.40403
948.5498	8230.04466
947.40137	8182.1345
946.25293	8515.09218
945.10352	8845.78164
943.9541	9132.31224
942.80469	9257.37604
941.65527	9377.01666
940.50488	9651.82721
939.35449	9679.42161
938.2041	9445.54987
937.05371	9016.37994
935.90234	8642.98737
934.75098	8405.6957
933.59961	7669.82851
932.44727	6945.8845
931.29492	6097.33372
930.14258	5159.19733
928.99023	4213.61985
927.83691	3242.97793
926.68359	2372.86969
925.53027	1884.19814
924.37598	1458.03033
923.22266	1068.0471
922.06836	733.30007
920.91309	727.99164
919.75879	623.53176
918.60352	547.54506
917.44824	409.12933
916.29199	163.09128
915.13672	298.10104
913.98047	163.89287
912.82324	173.6794
911.66699	76.57075
910.50977	204.43407
909.35254	85.91378
908.19531	31.64432
907.03711	277.43258
905.87891	331.42029
904.7207	105.25233
903.56152	169.69398
902.40332	-92.45485
901.24414	96.62904
900.08398	10.41355
898.9248	163.99536
897.76465	129.71344
896.60449	158.41517
895.44336	158.51703
894.2832	10.62608
893.12207	176.98769
891.95996	236.81195
890.79883	368.77362
889.63672	639.63121
888.47461	600.42735
887.31152	872.55532
886.14941	923.98932
884.98633	1441.42812
883.82324	1823.06809
882.65918	2019.08372
881.49512	2240.3277
880.33105	2590.16673
879.16699	2609.10244
878.00195	2222.19261
876.83691	2219.13369
875.67188	2101.7556
874.50684	1622.31321
873.34082	1308.99436
872.1748	1295.85236
871.00781	1166.37181
869.8418	834.53001
868.6748	730.47129
867.50781	745.57729
866.33984	627.02037
865.17285	378.07981
864.00488	187.53563
862.83594	277.36413
861.66797	325.23535
860.49902	221.8304
859.33008	365.89573
858.16016	170.6195
856.99121	282.69017
855.82129	197.84103
854.65039	55.93924
853.48047	75.77494
852.30957	208.32892
851.13867	-25.97504
849.9668	97.33531
848.7959	316.57111
847.62402	226.54399
846.45117	419.81407
845.2793	288.74208
844.10645	356.62933
842.93359	425.18897
841.75977	270.17209
840.58691	304.41878
839.41309	197.23568
838.23926	427.66939
837.06445	520.53628
835.88965	285.85182
834.71484	350.80927
833.54004	203.5082
832.36426	152.6688
831.18848	282.93423
830.0127	274.81304
828.83594	411.35618
827.65918	484.35539
826.48242	154.97552
825.30566	352.4648
824.12793	364.1322
822.9502	357.12889
821.77246	307.51303
820.59375	503.78644
819.41602	394.67501
818.2373	376.46783
817.05762	552.92898
815.87793	682.87376
814.69824	505.30589
813.51855	430.54148
812.33887	440.57385
811.1582	306.49878
809.97754	451.92065
808.7959	339.74784
807.61523	260.66447
806.43359	250.13977
805.25098	127.64634
804.06934	281.50365
802.88672	83.31128
801.7041	246.64752
800.52051	199.82195
799.33789	235.107
798.1543	99.31597
796.96973	118.92409
795.78613	-4.78859
794.60156	11.05388
793.41699	-78.50948
792.23145	-156.42153
791.04688	-39.24626
789.86035	114.68812
788.6748	3.31355
787.48926	4.70011
786.30273	119.82169
785.11523	89.81478
783.92871	74.54715
782.74121	61.79102
781.55371	239.1942
780.36621	38.5414
779.17773	248.81432
777.98926	350.78029
776.80078	230.01296
775.6123	324.71351
774.42285	285.78287
773.2334	231.57655
772.04297	351.85744
770.85352	230.12208
769.66309	290.14561
768.47168	530.7514
767.28125	568.83392
766.08984	518.8299
764.89844	468.55754
763.70605	305.90714
762.51465	336.93656
761.32227	148.40544
760.12891	227.95943
758.93652	427.88761
757.74316	242.43396
756.5498	332.16054
755.35547	196.64997
754.16211	320.85982
752.9668	196.65384
751.77246	284.79649
750.57715	325.72426
749.38281	315.28716
748.18652	182.73429
746.99121	179.38384
745.79492	203.5002
744.59863	145.78441
743.40137	139.82336
742.20508	214.67672
741.00781	115.88199
739.81055	40.04052
738.6123	145.47825
737.41406	233.92377
736.21582	11.03296
735.0166	75.2928
733.81836	154.41511
732.61914	-24.27443
731.41895	233.74656
730.21973	166.86382
729.01953	32.94414
727.81934	40.48797
726.61816	86.74399
725.41699	291.92318
724.21582	168.79932
723.01465	212.53666
721.8125	261.76318
720.61035	544.30629
719.4082	288.2696
718.20508	593.37677
717.00195	632.66811
715.79883	452.88727
714.5957	533.11094
713.3916	620.13462
712.1875	647.07851
710.98242	668.42499
709.77832	618.35651
708.57324	880.58396
707.36719	926.02627
706.16211	768.57648
704.95605	989.64223
703.75	830.29055
702.54297	1067.48566
701.33691	1054.05817
700.12988	1098.5882
698.92188	1281.46141
697.71484	1196.01878
696.50684	1341.65135
695.29785	1600.36888
694.08984	1646.86953
692.88086	1677.68561
691.67188	1756.6485
690.46289	1979.10618
689.25293	2072.55735
688.04297	2275.10651
686.83301	2357.25966
685.62207	2645.80573
684.41113	2759.79466
683.2002	2792.88239
681.98828	3030.14036
680.77637	3103.9125
679.56445	3400.87539
678.35254	3604.20481
677.13965	3554.13678
675.92676	3618.6485
674.71387	3501.06842
673.5	3377.98281
672.28613	3273.99095
671.07227	3218.11953
669.8584	3165.55084
668.64355	2856.94619
667.42871	3002.61432
666.21289	2764.86367
664.99805	2716.4999
663.78223	2668.61888
662.56543	2572.06175
661.34961	2583.09462
660.13281	2428.76341
658.91602	2435.84202
657.69824	2440.21572
656.48047	2321.89622
655.2627	2307.89231
654.04492	2377.33486
652.82617	2209.98395
651.60742	2210.51992
650.38867	2227.65452
649.16895	2404.63239
647.94922	2373.50804
646.72949	2655.22239
645.50879	2663.54157
644.28809	2649.57705
643.06738	2952.24323
641.84668	2929.99192
640.625	3084.87018
639.40332	3347.10455
638.18164	3371.22467
636.95898	3643.90175
635.73633	3687.70286
634.51367	3968.3692
633.29004	3869.24192
632.06641	3988.58144
630.84277	3968.45807
629.61914	4087.29629
628.39453	3932.80214
627.16992	3928.75657
625.94531	3893.4444
624.71973	3704.24746
623.49414	3691.09609
622.26855	3621.27448
621.04199	3595.9802
619.81543	3519.77382
618.58887	3617.30475
617.36133	3415.92975
616.13477	3409.91217
614.90723	3454.0222
613.67871	3274.12897
612.4502	3272.14785
611.22168	3109.13287
609.99316	2884.48411
608.76367	2648.17877
607.53418	2497.7997
606.30469	2373.55231
605.0752	2093.89866
603.84473	2047.82916
602.61426	1842.67747
601.38281	1864.55149
600.15137	1831.88059
598.91992	1688.09397
597.68848	1529.63027
596.45605	1394.18789
595.22363	1354.87002
593.99121	1207.94562
592.75781	1039.6179
591.52441	1010.8028
590.29102	847.9151
589.05762	666.43162
587.82324	583.68195
586.58887	631.263
585.35352	538.5095
584.11816	430.58982
582.88281	577.96031
581.64746	478.72298
580.41113	360.67741
579.1748	345.77856
577.93848	256.46187
576.70117	170.26728
575.46484	44.41614
574.22656	223.55441
572.98926	142.41971
571.75098	375.31152
570.5127	216.05185
569.27344	166.79037
568.03516	279.21717
566.7959	123.8687
565.55566	265.44929
564.31641	186.49307
563.07617	222.41123
561.83496	138.35571
560.59473	-86.10785
559.35352	67.03537
558.11133	225.87574
556.87012	2.61717
555.62793	71.4588
554.38574	59.56885
553.14355	125.42151
551.90039	321.7812
550.65723	412.40125
549.41309	480.20728