#Wave		#Intensity
1800.529297	-1227.674194
1798.058594	879.243347
1795.587891	1039.619629
1793.115234	1390.264648
1790.642578	-304.256256
1788.169922	2768.603760
1785.697266	3249.124756
1783.222656	-592.069763
1780.746094	384.088593
1778.269531	-1673.710449
1775.792969	-1500.479980
1773.316406	-265.794495
1770.837891	-259.552979
1768.357422	2925.813965
1765.878906	3161.325439
1763.398438	418.300568
1760.916016	1189.662476
1758.435547	324.778168
1755.951172	-2391.887451
1753.468750	-507.039337
1750.984375	1437.413940
1748.498047	-19.479776
1746.013672	2503.844482
1743.527344	1222.863892
1741.039063	1170.564575
1738.550781	1212.371338
1736.062500	2312.298828
1733.574219	1836.065674
1731.083984	-225.487030
1728.591797	-1197.022095
1726.099609	-202.760910
1723.607422	-12.274366
1721.115234	1095.325806
1718.621094	-211.935440
1716.126953	-19.537413
1713.630859	862.239563
1711.134766	-1119.052856
1708.636719	3867.040771
1706.140625	620.779846
1703.640625	-1490.208496
1701.142578	232.005890
1698.642578	2127.944824
1696.140625	2183.397461
1693.640625	1343.803955
1691.138672	3316.144043
1688.634766	-2435.329346
1686.130859	-555.547363
1683.626953	1230.452393
1681.121094	4273.076660
1678.615234	4369.597656
1676.109375	3745.665283
1673.601563	10651.593750
1671.093750	12337.224609
1668.583984	19031.873047
1666.074219	24337.054688
1663.564453	37575.285156
1661.052734	59088.027344
1658.541016	90393.625000
1656.027344	140626.390625
1653.513672	201870.062500
1651.000000	243135.562500
1648.484375	247091.812500
1645.968750	200460.687500
1643.453125	149153.390625
1640.935547	104047.687500
1638.417969	69590.351563
1635.898438	47376.042969
1633.378906	39331.390625
1630.859375	26319.613281
1628.337891	21863.337891
1625.816406	15951.640625
1623.292969	16885.900391
1620.769531	18861.531250
1618.246094	19740.371094
1615.720703	26773.832031
1613.195313	29689.222656
1610.669922	34937.691406
1608.142578	39174.984375
1605.613281	42295.367188
1603.085938	46606.617188
1600.556641	58410.511719
1598.025391	63816.238281
1595.494141	58793.519531
1592.962891	49995.035156
1590.429688	44315.980469
1587.896484	49041.230469
1585.363281	60199.449219
1582.828125	80165.281250
1580.292969	107217.750000
1577.755859	137511.281250
1575.218750	150484.828125
1572.681641	145362.390625
1570.142578	136979.359375
1567.603516	119942.601563
1565.062500	99884.093750
1562.521484	78772.414063
1559.980469	68419.304688
1557.437500	61014.105469
1554.894531	58613.128906
1552.349609	57706.562500
1549.804688	61815.605469
1547.259766	65968.054688
1544.712891	73395.312500
1542.166016	74156.804688
1539.619141	83325.515625
1537.070313	87448.375000
1534.519531	85738.507813
1531.970703	81003.500000
1529.417969	78137.250000
1526.867188	73798.148438
1524.314453	73735.921875
1521.761719	87921.335938
1519.207031	107325.218750
1516.652344	143337.421875
1514.095703	185399.515625
1511.539063	222582.078125
1508.982422	241538.546875
1506.423828	233381.609375
1503.865234	208855.359375
1501.306641	170807.234375
1498.746094	133590.140625
1496.185547	96748.906250
1493.623047	69517.312500
1491.060547	53803.085938
1488.496094	39940.355469
1485.931641	28487.355469
1483.367188	22472.064453
1480.800781	20019.353516
1478.234375	19996.060547
1475.667969	19186.583984
1473.099609	18120.660156
1470.531250	17569.652344
1467.960938	14657.786133
1465.390625	13628.589844
1462.818359	4892.152344
1460.246094	450.408508
1457.673828	4168.254395
1455.099609	1376.511841
1452.525391	5461.750488
1449.951172	3509.014648
1447.375000	488.108307
1444.796875	5444.008789
1442.220703	2089.475586
1439.642578	-1609.745483
1437.062500	4822.093262
1434.482422	7753.034180
1431.902344	5735.642578
1429.320313	9357.865234
1426.738281	10516.168945
1424.154297	17056.865234
1421.570313	24998.177734
1418.986328	21465.841797
1416.400391	18193.333984
1413.814453	11926.301758
1411.226563	2225.335449
1408.638672	302.774658
1406.050781	-770.921265
1403.460938	-1304.551270
1400.871094	-150.112457
1398.279297	1101.898560
1395.687500	4366.864746
1393.095703	6729.285156
1390.501953	17651.212891
1387.908203	20394.255859
1385.312500	30707.082031
1382.716797	40387.933594
1380.119141	40582.218750
1377.521484	45135.058594
1374.923828	52802.460938
1372.324219	76166.710938
1369.724609	116220.398438
1367.125000	176865.000000
1364.523438	231773.718750
1361.919922	244412.390625
1359.318359	209007.937500
1356.712891	163569.968750
1354.109375	128636.546875
1351.503906	101185.656250
1348.896484	73836.820313
1346.291016	56608.390625
1343.681641	35069.542969
1341.074219	26283.087891
1338.464844	21527.390625
1335.853516	16582.296875
1333.242188	18703.125000
1330.630859	18863.919922
1328.017578	24426.203125
1325.404297	36560.730469
1322.789063	49506.218750
1320.173828	62439.445313
1317.558594	76673.664063
1314.941406	95236.914063
1312.324219	107350.359375
1309.705078	97654.921875
1307.085938	91716.976563
1304.466797	71584.140625
1301.845703	56842.644531
1299.224609	40776.214844
1296.601563	35714.851563
1293.978516	26532.183594
1291.353516	28807.917969
1288.728516	30543.660156
1286.103516	24531.615234
1283.476563	21307.197266
1280.849609	23397.105469
1278.220703	23804.142578
1275.591797	27160.056641
1272.962891	21403.865234
1270.332031	21286.203125
1267.701172	17459.300781
1265.068359	13190.621094
1262.435547	11494.323242
1259.800781	7144.510254
1257.166016	8314.521484
1254.531250	2881.202881
1251.894531	186.620544
1249.257813	515.108582
1246.619141	-760.624268
1243.980469	-388.682587
1241.341797	-63.949219
1238.701172	3515.687256
1236.058594	2051.054688
1233.417969	1247.429932
1230.775391	4651.004883
1228.130859	8133.374023
1225.486328	13594.255859
1222.839844	10216.631836
1220.195313	8250.903320
1217.546875	8167.782227
1214.900391	7974.473633
1212.250000	8815.034180
1209.601563	15115.606445
1206.951172	23375.125000
1204.298828	34355.187500
1201.648438	43730.210938
1198.994141	47873.136719
1196.341797	60602.363281
1193.685547	60690.058594
1191.031250	70580.929688
1188.375000	80140.695313
1185.718750	87296.460938
1183.060547	87791.492188
1180.400391	88435.203125
1177.742188	78331.070313
1175.082031	52046.605469
1172.419922	36896.066406
1169.757813	23439.423828
1167.095703	15253.576172
1164.431641	7323.104980
1161.767578	6624.688477
1159.101563	4799.802734
1156.435547	2516.204590
1153.767578	-2149.734863
1151.101563	-511.364014
1148.431641	1170.569092
1145.761719	1262.794189
1143.091797	6576.347656
1140.419922	9916.834961
1137.748047	16453.185547
1135.076172	20284.773438
1132.402344	28242.291016
1129.726563	35185.820313
1127.052734	37506.054688
1124.375000	35136.042969
1121.699219	26950.048828
1119.019531	25042.201172
1116.341797	18582.455078
1113.662109	11054.261719
1110.982422	11008.543945
1108.300781	9145.569336
1105.617188	4987.353027
1102.935547	8089.240234
1100.251953	5578.667480
1097.566406	14174.914063
1094.880859	14492.357422
1092.193359	17108.312500
1089.507813	19699.498047
1086.818359	20846.439453
1084.128906	20038.296875
1081.439453	16259.865234
1078.750000	9354.880859
1076.058594	11631.698242
1073.365234	4695.256836
1070.671875	5091.499512
1067.978516	4812.609863
1065.283203	4421.215332
1062.587891	2802.629883
1059.890625	4094.180176
1057.193359	3091.548340
1054.494141	943.447754
1051.794922	2066.928223
1049.095703	339.367432
1046.394531	2231.055908
1043.693359	3073.280029
1040.990234	-649.097412
1038.287109	-1162.988525
1035.582031	-2172.395752
1032.876953	443.130676
1030.169922	-1379.964844
1027.462891	804.878784
1024.755859	3369.218262
1022.046875	2621.260498
1019.337891	1574.667725
1016.626953	3830.592773
1013.916016	6379.868652
1011.203125	2869.342529
1008.490234	5371.267090
1005.777344	1053.118042
1003.062500	2591.504883
1000.347656	-813.350830
997.630859	2150.355469
994.914063	-765.863647
992.195313	2634.928955
989.476563	578.035828
986.755859	-669.036133
984.035156	1938.554932
981.314453	-1210.937012
978.591797	781.255554
975.867188	1252.526489
973.142578	2006.543701
970.417969	1258.542847
967.691406	191.618118
964.964844	661.336243
962.238281	-211.019241
959.509766	-795.655884
956.779297	1145.975586
954.048828	-1266.861450
951.318359	2488.033936
948.585938	3896.593750
945.853516	1331.728027
943.119141	4155.313477
940.384766	5339.044922
937.648438	11766.306641
934.912109	19963.953125
932.175781	19342.148438
929.437500	21882.291016
926.697266	18369.998047
923.957031	18290.945313
921.216797	13678.025391
918.474609	12046.087891
915.732422	9627.515625
912.988281	8503.040039
910.244141	6066.014160
907.500000	5900.308105
904.753906	8875.856445
902.005859	6634.920898
899.257813	4439.424316
896.509766	3838.341797
893.759766	2808.687744
891.009766	3706.530029
888.257813	4919.828613
885.505859	2865.999023
882.751953	915.823425
879.998047	1115.502686
877.242188	-367.797607
874.486328	-1492.840332
871.730469	-550.314575
868.972656	-1772.728638
866.214844	-2254.010010
863.455078	-610.032898
860.693359	1353.022339
857.933594	366.220032
855.169922	2111.066650
852.408203	3126.747559
849.644531	2102.567383
846.878906	-1870.863281
844.113281	1591.800659
841.347656	-117.050919
838.580078	2826.995117
835.810547	2495.282227
833.041016	382.667816
830.271484	3632.275146
827.500000	3667.219238
824.728516	-1012.304016
821.955078	1849.514404
819.181641	1566.971313
816.408203	4349.667969
813.630859	1170.954224
810.855469	4672.219727
808.078125	6671.187500
805.298828	7188.835449
802.521484	8528.203125
799.740234	7658.293945
796.958984	10354.443359
794.177734	11531.714844
791.394531	14577.187500
788.611328	23066.154297
785.826172	33636.070313
783.041016	45743.082031
780.255859	73489.718750
777.466797	108484.625000
774.679688	131028.437500
771.890625	128123.835938
769.099609	106221.226563
766.308594	80775.445313
763.517578	45124.546875
760.724609	23342.738281
757.931641	17347.755859
755.136719	10523.295898
752.341797	9653.696289
749.544922	6140.092773
746.748047	4675.866211
743.949219	7402.586914
741.150391	4409.430176
738.349609	362.525513
735.548828	1571.720825
732.748047	3545.402344
729.945313	2458.009521
727.140625	4116.179688
724.335938	3875.173828
721.531250	2839.681152
718.724609	237.640625
715.917969	-688.070129
713.109375	1217.865479
710.300781	4262.762207
707.490234	4487.191406
704.679688	2585.223145
701.867188	1607.625977
699.054688	1971.854004
696.240234	-2518.184326
693.425781	-779.642822
690.611328	-611.846313
687.794922	-1182.416260
684.976563	-40.150970
682.158203	36.167622
679.339844	-48.156132
676.519531	3783.265381
673.697266	558.968811
670.875000	-306.789032
668.052734	-1634.656982
665.228516	4218.993652
662.404297	10357.405273
659.578125	14870.099609
656.751953	8990.100586
653.923828	2892.775879
651.095703	1647.261841
648.265625	-854.706726
645.435547	3023.452393
642.603516	6820.051270
639.771484	11251.077148
636.939453	9235.527344
634.105469	4350.909668
631.269531	1366.542603
628.433594	-579.195007
625.595703	4129.415039
622.757813	6112.431152
619.919922	25808.406250
617.080078	85556.664063
614.240234	227623.687500
611.398438	218764.390625
608.554688	102490.046875
605.712891	35421.636719
602.867188	19836.734375
600.021484	10136.717773
597.175781	1604.969849
594.328125	1622.056885
591.480469	472.271606
588.630859	530.761414
585.781250	-593.080017
582.931641	-363.702393
580.078125	-929.429138
577.226563	343.260071
574.373047	347.119293
571.517578	-943.141663
568.662109	2773.167480
565.804688	-1256.903687
562.947266	-3228.464600
560.089844	1189.766846
557.230469	2322.994141
554.369141	4313.799316
551.507813	1193.053955
548.646484	736.260559
