#Wave		#Intensity
1800.529297	-18.146618
1798.058594	10.657241
1795.587891	-3.260815
1793.115234	38.100842
1790.642578	-4.279897
1788.169922	32.780464
1785.697266	13.339890
1783.222656	3.863714
1780.746094	12.396260
1778.269531	-8.334734
1775.792969	2.021003
1773.316406	39.421474
1770.837891	34.522427
1768.357422	33.569557
1765.878906	-2.592679
1763.398438	89.689484
1760.916016	60.433674
1758.435547	7.067322
1755.951172	-4.196327
1753.468750	52.681831
1750.984375	36.317093
1748.498047	27.941586
1746.013672	19.541815
1743.527344	-13.916736
1741.039063	9.682796
1738.550781	28.244450
1736.062500	-20.255301
1733.574219	16.278765
1731.083984	-13.214708
1728.591797	8.281000
1726.099609	-8.213936
1723.607422	-36.688499
1721.115234	15.751002
1718.621094	-18.700842
1716.126953	25.724926
1713.630859	2.279171
1711.134766	11.775743
1708.636719	-1.658866
1706.140625	19.822430
1703.640625	16.387657
1701.142578	14.966570
1698.642578	-5.361077
1696.140625	-5.743495
1693.640625	-17.052448
1691.138672	2.515230
1688.634766	1.201771
1686.130859	-2.075425
1683.626953	-13.279150
1681.121094	-0.597132
1678.615234	20.053162
1676.109375	-39.741646
1673.601563	9.759978
1671.093750	-13.209665
1668.583984	-0.410315
1666.074219	-9.416681
1663.564453	21.285275
1661.052734	41.089912
1658.541016	25.227240
1656.027344	14.357103
1653.513672	65.933952
1651.000000	100.673317
1648.484375	112.648445
1645.968750	77.137238
1643.453125	62.454861
1640.935547	6.264045
1638.417969	14.411387
1635.898438	2.809404
1633.378906	9.030709
1630.859375	33.058792
1628.337891	-5.125270
1625.816406	-14.626266
1623.292969	-31.993584
1620.769531	-11.827655
1618.246094	29.066669
1615.720703	30.512062
1613.195313	-13.370712
1610.669922	20.657084
1608.142578	14.288734
1605.613281	27.644598
1603.085938	17.381495
1600.556641	0.253073
1598.025391	-8.973548
1595.494141	0.516536
1592.962891	7.068511
1590.429688	-2.098148
1587.896484	-2.396244
1585.363281	13.043702
1582.828125	2.948841
1580.292969	23.317408
1577.755859	57.431149
1575.218750	91.537682
1572.681641	26.542402
1570.142578	65.565979
1567.603516	58.492382
1565.062500	31.828543
1562.521484	-16.367559
1559.980469	14.826254
1557.437500	-18.627201
1554.894531	-4.078504
1552.349609	2.638758
1549.804688	12.294628
1547.259766	52.274498
1544.712891	37.475620
1542.166016	15.848671
1539.619141	53.853561
1537.070313	43.968239
1534.519531	8.699225
1531.970703	-12.874345
1529.417969	28.036863
1526.867188	-29.627054
1524.314453	13.221665
1521.761719	7.287364
1519.207031	-22.039015
1516.652344	22.723820
1514.095703	37.257263
1511.539063	91.717445
1508.982422	103.302536
1506.423828	106.120338
1503.865234	101.152161
1501.306641	89.377800
1498.746094	41.627087
1496.185547	-3.177505
1493.623047	-6.162282
1491.060547	-12.060069
1488.496094	-19.897650
1485.931641	-36.469948
1483.367188	-9.348804
1480.800781	6.109584
1478.234375	3.125292
1475.667969	16.630131
1473.099609	3.947697
1470.531250	-5.819503
1467.960938	-17.519533
1465.390625	28.907841
1462.818359	2.677751
1460.246094	-31.281071
1457.673828	10.268150
1455.099609	9.221978
1452.525391	21.717306
1449.951172	13.900425
1447.375000	-12.277320
1444.796875	-8.483521
1442.220703	18.493521
1439.642578	-2.831537
1437.062500	14.473651
1434.482422	-5.870354
1431.902344	35.548351
1429.320313	26.786823
1426.738281	-8.966170
1424.154297	39.166748
1421.570313	11.144252
1418.986328	14.931666
1416.400391	-44.843067
1413.814453	45.611908
1411.226563	9.930763
1408.638672	10.836753
1406.050781	7.897925
1403.460938	18.425703
1400.871094	48.176041
1398.279297	4.876310
1395.687500	9.641529
1393.095703	3.843441
1390.501953	52.778210
1387.908203	49.857819
1385.312500	17.198311
1382.716797	32.524216
1380.119141	49.762791
1377.521484	43.988636
1374.923828	-3.943384
1372.324219	32.465752
1369.724609	77.477379
1367.125000	112.892128
1364.523438	166.475861
1361.919922	170.275177
1359.318359	144.424866
1356.712891	100.426170
1354.109375	110.951042
1351.503906	77.513756
1348.896484	63.209938
1346.291016	15.493362
1343.681641	27.008120
1341.074219	18.477665
1338.464844	13.774546
1335.853516	3.356384
1333.242188	-72.848709
1330.630859	-14.583395
1328.017578	32.214901
1325.404297	-2.944763
1322.789063	-3.789979
1320.173828	42.025497
1317.558594	29.755573
1314.941406	38.431976
1312.324219	126.062149
1309.705078	41.518990
1307.085938	107.237885
1304.466797	36.067299
1301.845703	10.548557
1299.224609	14.492983
1296.601563	32.680897
1293.978516	19.537981
1291.353516	-35.345158
1288.728516	-17.148338
1286.103516	-16.977770
1283.476563	9.739683
1280.849609	27.913637
1278.220703	35.656521
1275.591797	28.242430
1272.962891	-17.038769
1270.332031	20.058510
1267.701172	41.047470
1265.068359	4.320659
1262.435547	7.334866
1259.800781	4.674762
1257.166016	14.302133
1254.531250	-3.475623
1251.894531	-16.521238
1249.257813	7.263532
1246.619141	11.209794
1243.980469	12.320693
1241.341797	20.975143
1238.701172	15.475923
1236.058594	42.972076
1233.417969	-8.715898
1230.775391	-11.384931
1228.130859	-33.835258
1225.486328	20.930475
1222.839844	16.358154
1220.195313	-3.271543
1217.546875	37.307056
1214.900391	2.625309
1212.250000	48.804585
1209.601563	-20.644363
1206.951172	17.044365
1204.298828	-6.345761
1201.648438	49.139061
1198.994141	6.026658
1196.341797	62.394661
1193.685547	39.924198
1191.031250	76.536095
1188.375000	82.180305
1185.718750	59.697178
1183.060547	67.197105
1180.400391	41.902477
1177.742188	55.936852
1175.082031	-8.669628
1172.419922	37.162399
1169.757813	-14.324389
1167.095703	4.341261
1164.431641	-21.886587
1161.767578	33.191963
1159.101563	9.750593
1156.435547	-30.498055
1153.767578	-9.115148
1151.101563	-29.756737
1148.431641	-14.943259
1145.761719	-22.536900
1143.091797	3.430079
1140.419922	20.978588
1137.748047	28.253452
1135.076172	4.769829
1132.402344	5.501296
1129.726563	43.458626
1127.052734	32.054325
1124.375000	20.643991
1121.699219	25.971361
1119.019531	-3.120553
1116.341797	23.565689
1113.662109	10.266435
1110.982422	27.618977
1108.300781	20.804276
1105.617188	16.767366
1102.935547	26.643734
1100.251953	1.248245
1097.566406	48.199947
1094.880859	3.322578
1092.193359	12.222104
1089.507813	34.079830
1086.818359	80.923447
1084.128906	25.869238
1081.439453	43.047012
1078.750000	29.667650
1076.058594	32.015911
1073.365234	-34.081829
1070.671875	22.819241
1067.978516	-13.669902
1065.283203	-28.890911
1062.587891	12.236094
1059.890625	28.401344
1057.193359	3.937693
1054.494141	-3.904179
1051.794922	6.706414
1049.095703	11.775205
1046.394531	-8.052309
1043.693359	-8.514006
1040.990234	35.247063
1038.287109	9.904421
1035.582031	-3.451929
1032.876953	16.338001
1030.169922	-18.171040
1027.462891	20.933514
1024.755859	14.039440
1022.046875	-24.101339
1019.337891	-7.073687
1016.626953	-15.774343
1013.916016	9.518103
1011.203125	3.586005
1008.490234	20.611460
1005.777344	13.779748
1003.062500	-6.796671
1000.347656	8.411075
997.630859	21.786453
994.914063	-10.651938
992.195313	31.143072
989.476563	-20.483040
986.755859	-1.571227
984.035156	-6.451343
981.314453	2.410731
978.591797	4.880542
975.867188	-20.063927
973.142578	-19.382498
970.417969	-4.063683
967.691406	25.878555
964.964844	-2.619570
962.238281	9.085833
959.509766	-15.698159
956.779297	-25.849373
954.048828	-16.820883
951.318359	23.221191
948.585938	17.690851
945.853516	20.387352
943.119141	-6.951095
940.384766	24.935627
937.648438	12.225416
934.912109	51.414387
932.175781	61.495308
929.437500	17.943911
926.697266	32.625771
923.957031	32.784508
921.216797	25.701963
918.474609	15.926219
915.732422	52.486149
912.988281	22.795286
910.244141	0.409263
907.500000	0.740634
904.753906	36.461449
902.005859	14.175424
899.257813	34.519890
896.509766	20.456963
893.759766	-14.397142
891.009766	-6.653784
888.257813	-24.227165
885.505859	-23.668077
882.751953	-11.325078
879.998047	9.173914
877.242188	2.572238
874.486328	-23.876049
871.730469	-24.990614
868.972656	-8.019724
866.214844	-23.529541
863.455078	11.527786
860.693359	-27.381706
857.933594	-18.447929
855.169922	11.238287
852.408203	1.276149
849.644531	13.866007
846.878906	59.792862
844.113281	36.387302
841.347656	8.517737
838.580078	16.676643
835.810547	-18.322987
833.041016	3.366028
830.271484	31.351770
827.500000	22.496214
824.728516	19.951639
821.955078	30.895573
819.181641	2.349393
816.408203	47.424553
813.630859	65.572212
810.855469	18.252941
808.078125	35.528500
805.298828	39.362049
802.521484	37.828411
799.740234	54.221073
796.958984	43.751945
794.177734	27.928637
791.394531	22.862530
788.611328	41.065197
785.826172	42.274036
783.041016	30.974052
780.255859	92.966171
777.466797	87.030617
774.679688	145.403793
771.890625	139.465240
769.099609	134.428131
766.308594	117.799858
763.517578	28.942608
760.724609	28.415894
757.931641	3.827208
755.136719	33.610447
752.341797	-31.931612
749.544922	16.549103
746.748047	5.360489
743.949219	33.336338
741.150391	15.038694
738.349609	26.102755
735.548828	51.386597
732.748047	15.336541
729.945313	-9.136364
727.140625	10.817556
724.335938	-22.507053
721.531250	-16.752684
718.724609	-14.544712
715.917969	-20.314342
713.109375	-32.278828
710.300781	-2.566970
707.490234	32.451927
704.679688	14.309861
701.867188	-1.151845
699.054688	35.638134
696.240234	2.508237
693.425781	13.648218
690.611328	8.879226
687.794922	10.320978
684.976563	-6.776846
682.158203	17.682480
679.339844	7.704464
676.519531	25.129360
673.697266	16.974558
670.875000	-37.027309
668.052734	43.990677
665.228516	2.424934
662.404297	42.016815
659.578125	33.155762
656.751953	9.364594
653.923828	30.541979
651.095703	-6.352066
648.265625	33.386810
645.435547	33.558727
642.603516	2.120696
639.771484	34.054176
636.939453	32.622513
634.105469	-5.652839
631.269531	2.704011
628.433594	6.723145
625.595703	13.433304
622.757813	-28.059183
619.919922	17.373377
617.080078	111.066254
614.240234	240.698685
611.398438	219.590988
608.554688	106.582657
605.712891	38.369743
602.867188	56.055820
600.021484	27.408735
597.175781	0.588438
594.328125	-18.285776
591.480469	66.067535
588.630859	21.943878
585.781250	-11.620588
582.931641	32.610065
580.078125	45.419434
577.226563	2.388288
574.373047	34.447563
571.517578	-19.848930
568.662109	10.475801
565.804688	1.554073
562.947266	18.765062
560.089844	8.934381
557.230469	-18.343576
554.369141	-7.353724
551.507813	50.550343
548.646484	4.806074
