#Wave		#Intensity
1799.839844	-46.396347
1797.369141	662.894714
1794.896484	-738.685120
1792.425781	277.983429
1789.953125	-327.370239
1787.480469	-525.023865
1785.005859	93.403793
1782.531250	-459.320984
1780.054688	652.257324
1777.578125	-364.732483
1775.101563	117.552139
1772.623047	-276.109161
1770.144531	855.435486
1767.666016	123.039391
1765.185547	436.617279
1762.705078	-864.578430
1760.224609	115.994560
1757.742188	-646.961731
1755.259766	931.576782
1752.775391	631.080322
1750.291016	166.940033
1747.804688	297.872955
1745.320313	890.203552
1742.832031	502.002533
1740.345703	-887.530823
1737.857422	-63.562176
1735.369141	-701.030212
1732.878906	-212.392319
1730.388672	-451.850708
1727.896484	725.074524
1725.404297	-257.701233
1722.912109	-752.966309
1720.419922	550.149963
1717.925781	-186.914856
1715.429688	550.823242
1712.933594	-712.806274
1710.437500	142.375610
1707.941406	160.933212
1705.443359	-35.761574
1702.945313	-130.409576
1700.445313	-194.262405
1697.945313	-628.496765
1695.443359	-203.608185
1692.943359	-785.208618
1690.439453	43.518459
1687.937500	610.810242
1685.433594	-120.058548
1682.927734	-905.408142
1680.423828	723.860107
1677.916016	186.263870
1675.410156	432.285248
1672.902344	-1345.570313
1670.394531	784.646790
1667.884766	1129.742920
1665.375000	1985.971802
1662.863281	4031.729004
1660.353516	5480.627930
1657.839844	7948.739746
1655.328125	10169.353516
1652.814453	13461.406250
1650.298828	15531.155273
1647.783203	15642.228516
1645.267578	14870.921875
1642.751953	11791.188477
1640.234375	8961.306641
1637.714844	6702.170898
1635.197266	7065.740234
1632.677734	5062.459473
1630.156250	5673.174316
1627.634766	4809.990234
1625.113281	5307.519531
1622.589844	5165.403320
1620.066406	5518.990234
1617.542969	5864.631348
1615.017578	6700.790527
1612.490234	7406.761719
1609.964844	7861.924805
1607.437500	8911.989258
1604.908203	8922.333008
1602.380859	8792.346680
1599.849609	9146.080078
1597.320313	8936.955078
1594.789063	9851.778320
1592.255859	9482.030273
1589.724609	8454.678711
1587.189453	9226.289063
1584.656250	10932.474609
1582.121094	11898.920898
1579.585938	12125.624023
1577.048828	15088.738281
1574.511719	15722.438477
1571.972656	15039.857422
1569.433594	14556.789063
1566.894531	13620.057617
1564.353516	13847.867188
1561.812500	13182.831055
1559.271484	11763.891602
1556.728516	12667.168945
1554.183594	13446.106445
1551.640625	12776.514648
1549.095703	13492.291016
1546.548828	13727.994141
1544.001953	14393.821289
1541.455078	12750.577148
1538.906250	13901.778320
1536.357422	13288.278320
1533.808594	12337.558594
1531.257813	10828.923828
1528.707031	11454.133789
1526.154297	12045.873047
1523.601563	11424.482422
1521.048828	11590.127930
1518.494141	11461.591797
1515.937500	13040.946289
1513.382813	14497.053711
1510.826172	13597.095703
1508.267578	14246.501953
1505.710938	15906.666992
1503.150391	12532.984375
1500.591797	10014.612305
1498.031250	8525.938477
1495.468750	6035.381348
1492.906250	6262.681641
1490.343750	4116.675781
1487.779297	2803.218750
1485.214844	3570.848633
1482.650391	3375.814209
1480.083984	1808.250366
1477.517578	2430.050781
1474.949219	983.631287
1472.380859	1569.453613
1469.812500	2338.553223
1467.242188	1486.436890
1464.671875	695.697998
1462.099609	764.747803
1459.527344	360.588287
1456.953125	915.409546
1454.378906	-239.003830
1451.804688	272.288239
1449.228516	447.065094
1446.652344	-519.701965
1444.076172	173.173233
1441.498047	-1369.691284
1438.919922	-831.296753
1436.339844	-1425.435181
1433.759766	-622.173767
1431.177734	650.785095
1428.595703	-460.068481
1426.013672	323.467773
1423.429688	-572.658752
1420.845703	849.532532
1418.261719	817.859741
1415.675781	-528.924255
1413.087891	-569.192688
1410.501953	-894.765198
1407.912109	881.014832
1405.324219	-1635.842041
1402.734375	-962.154846
1400.142578	-55.408215
1397.552734	-377.078644
1394.958984	656.459778
1392.367188	553.614136
1389.773438	971.496826
1387.177734	1759.009277
1384.582031	1818.905518
1381.986328	3060.447510
1379.390625	2636.955566
1376.791016	3642.168701
1374.193359	4843.986816
1371.593750	7032.548340
1368.994141	10123.255859
1366.392578	10292.250000
1363.791016	14270.607422
1361.187500	13484.997070
1358.583984	10358.230469
1355.980469	10276.428711
1353.375000	7755.596191
1350.769531	5828.525391
1348.162109	3822.620850
1345.554688	1875.067139
1342.947266	-248.162918
1340.337891	-159.451813
1337.728516	107.363800
1335.117188	-327.665497
1332.505859	-591.952332
1329.892578	-1400.106689
1327.281250	-419.964630
1324.666016	481.240906
1322.050781	-568.680664
1319.435547	-367.420197
1316.820313	560.483826
1314.203125	1505.972900
1311.583984	1597.819702
1308.964844	260.961761
1306.345703	2280.689453
1303.726563	708.602783
1301.105469	257.322906
1298.482422	814.667725
1295.859375	-110.077019
1293.236328	-731.417664
1290.611328	-610.831238
1287.986328	755.954224
1285.359375	364.397461
1282.732422	887.605835
1280.105469	344.185547
1277.476563	603.655701
1274.847656	1330.331543
1272.216797	922.481201
1269.585938	1842.069946
1266.953125	584.927734
1264.322266	656.093567
1261.687500	8.862868
1259.052734	755.271362
1256.417969	-466.181244
1253.783203	-1259.183350
1251.146484	490.689209
1248.507813	-18.469219
1245.869141	771.758728
1243.230469	-1904.378662
1240.589844	502.732361
1237.949219	1465.039063
1235.306641	1097.406860
1232.664063	-129.341827
1230.021484	959.950500
1227.376953	2643.121094
1224.732422	595.182312
1222.085938	1689.161499
1219.439453	677.417480
1216.792969	670.208069
1214.144531	-86.403282
1211.494141	1533.407104
1208.843750	1684.661865
1206.193359	3924.002441
1203.542969	2487.509766
1200.888672	4240.902344
1198.236328	2998.861084
1195.582031	2753.295654
1192.927734	4185.403809
1190.271484	6348.143066
1187.615234	6212.779785
1184.957031	5512.620605
1182.298828	6208.034180
1179.638672	4906.613770
1176.978516	3092.424316
1174.318359	2192.051514
1171.656250	3774.003662
1168.994141	3039.578857
1166.330078	693.635254
1163.666016	-645.987610
1161.001953	980.941589
1158.335938	-498.177979
1155.669922	-1710.115601
1153.001953	-2142.184082
1150.333984	-2860.360107
1147.664063	-889.886902
1144.994141	-1151.261353
1142.322266	-22.750347
1139.650391	-3277.870605
1136.978516	-244.786987
1134.304688	679.370117
1131.630859	1173.913696
1128.955078	820.033813
1126.279297	1752.586304
1123.603516	1638.399048
1120.925781	-160.763260
1118.246094	376.434570
1115.568359	1298.003052
1112.886719	-460.637878
1110.207031	1589.759521
1107.523438	795.839844
1104.841797	674.644958
1102.158203	707.960388
1099.472656	1468.092773
1096.789063	3404.967285
1094.101563	4565.026855
1091.416016	2741.122314
1088.726563	2988.454590
1086.039063	2935.570801
1083.349609	3339.346924
1080.658203	3121.245117
1077.966797	4826.773438
1075.275391	4121.839355
1072.582031	2200.344971
1069.888672	920.026611
1067.193359	2780.482422
1064.498047	283.048035
1061.802734	2067.241455
1059.105469	1908.453369
1056.406250	2156.491455
1053.707031	2280.075195
1051.007813	1692.045288
1048.306641	2403.651611
1045.605469	1485.054321
1042.902344	1945.073120
1040.199219	1752.837524
1037.496094	2532.479248
1034.791016	410.234406
1032.085938	-963.705994
1029.378906	95.119690
1026.669922	162.479202
1023.962891	2030.540771
1021.253906	36.445473
1018.542969	-54.255508
1015.832031	630.118164
1013.121094	1280.140503
1010.408203	1757.012329
1007.693359	-823.840210
1004.978516	-114.906761
1002.263672	501.727386
999.546875	1175.304077
996.830078	-849.336548
994.113281	138.027954
991.394531	1558.083130
988.673828	653.871460
985.953125	2436.428955
983.232422	4.437756
980.509766	1030.465210
977.787109	1211.276367
975.062500	1032.941772
972.337891	1703.398560
969.611328	1975.594727
966.884766	1459.575928
964.158203	3222.687500
961.429688	3954.317871
958.701172	3461.579102
955.970703	4663.955078
953.240234	3414.569580
950.507813	3974.813965
947.775391	2716.916748
945.041016	4026.488770
942.306641	4575.081543
939.570313	4908.555664
936.833984	4267.565918
934.097656	3718.433350
931.359375	4934.207031
928.621094	4624.319336
925.880859	4164.224609
923.140625	3713.331787
920.398438	4212.407715
917.656250	2698.180664
914.912109	3218.791748
912.167969	4569.320313
909.423828	1516.969360
906.677734	2868.911133
903.931641	1688.218506
901.183594	3739.749756
898.433594	915.170166
895.685547	2006.767334
892.935547	753.697571
890.183594	1678.888550
887.431641	309.089203
884.677734	-223.312073
881.923828	-1654.090332
879.169922	4.515120
876.414063	-2020.232300
873.656250	-871.596924
870.900391	-1896.357544
868.140625	-713.840454
865.382813	-1767.559326
862.621094	-1071.066650
859.861328	95.361870
857.099609	1471.368896
854.335938	446.655304
851.572266	909.359070
848.806641	-139.497833
846.041016	-462.888855
843.275391	731.356628
840.507813	1377.516724
837.740234	832.000732
834.970703	847.467041
832.201172	2075.967529
829.429688	1658.510742
826.658203	605.480530
823.884766	1703.049438
821.111328	2907.559814
818.337891	2362.859131
815.562500	2543.134033
812.785156	3561.465088
810.007813	3482.118896
807.230469	2375.041992
804.451172	3622.664063
801.671875	3375.528320
798.890625	4066.922363
796.109375	4085.514160
793.326172	3854.264160
790.542969	2447.435791
787.757813	3214.257324
784.972656	4593.372070
782.187500	7056.050293
779.400391	8965.363281
776.611328	10987.166992
773.822266	13231.123047
771.033203	14052.032227
768.242188	11020.043945
765.449219	8248.894531
762.658203	5944.206543
759.863281	4306.259766
757.070313	3525.781006
754.273438	2918.124756
751.478516	1937.021118
748.681641	1084.227173
745.882813	1288.748535
743.083984	1521.204834
740.283203	404.989563
737.482422	997.118103
734.681641	924.859070
731.878906	68.252449
729.074219	396.388092
726.271484	863.028259
723.464844	-1706.267578
720.658203	-789.711426
717.851563	839.396729
715.042969	1126.241211
712.234375	-50.941029
709.423828	339.291718
706.613281	452.102417
703.800781	-682.310059
700.988281	69.453720
698.175781	253.598038
695.361328	-1254.185059
692.544922	-1681.024292
689.728516	-675.993286
686.912109	-746.592102
684.093750	216.846008
681.273438	310.359039
678.453125	968.883362
675.632813	-1706.425659
672.810547	758.997925
669.988281	360.769287
667.164063	1208.787476
664.339844	1092.996216
661.513672	606.246277
658.687500	-1324.730347
655.859375	2683.486328
653.031250	-502.375244
650.201172	-328.084930
647.371094	356.195557
644.539063	-1121.223022
641.707031	-672.624817
638.875000	142.941483
636.041016	109.742897
633.205078	1630.170288
630.369141	542.492126
627.533203	280.456451
624.695313	-1951.814087
621.855469	847.395874
619.015625	1507.864014
616.175781	7365.934082
613.333984	16588.816406
610.492188	14492.612305
607.648438	9067.241211
604.804688	4828.833008
601.958984	2869.206299
599.113281	193.145981
596.265625	1764.245239
593.417969	2492.256592
590.568359	-45.052139
587.718750	2051.194092
584.867188	2467.147949
582.015625	3033.520020
579.162109	1820.146362
576.308594	2789.596680
573.455078	903.149902
570.597656	734.266968
567.742188	-10.860237
564.884766	-553.282166
562.025391	356.535492
559.166016	931.065002
556.306641	355.011780
553.445313	-1558.929932
550.582031	-343.779022
