#Wave		#Intensity
1678.89356	6.66667E-7
1677.90527	600.40253
1676.91699	396.71734
1675.92871	771.2331
1674.93945	747.93026
1673.95019	529.14524
1672.96094	414.97536
1671.97168	833.88021
1670.98242	408.07062
1669.99219	518.94388
1669.00195	442.54524
1668.01172	457.3961
1667.02148	837.87375
1666.03027	581.91659
1665.03906	564.48918
1664.04883	509.20371
1663.05664	112.04509
1662.06543	393.42047
1661.07324	551.28741
1660.08203	736.41933
1659.08984	725.85072
1658.09766	417.74062
1657.10449	328.05345
1656.11231	556.47753
1655.11914	158.41366
1654.12598	594.52969
1653.13184	868.48123
1652.13867	450.27287
1651.14453	634.91204
1650.15039	544.2423
1649.15625	528.01859
1648.16211	548.4093
1647.16699	366.25727
1646.17285	577.40423
1645.17773	853.03833
1644.18164	259.16356
1643.18652	344.37657
1642.19043	391.42738
1641.19531	631.50374
1640.19922	346.85133
1639.20215	557.48937
1638.20606	447.47839
1637.20898	806.46164
1636.21191	428.11146
1635.21484	238.51329
1634.21777	503.30601
1633.21973	73.51674
1632.22266	231.72922
1631.22461	307.84371
1630.22656	391.17025
1629.22754	271.68899
1628.22949	319.10374
1627.23047	297.35391
1626.23144	183.77507
1625.23144	243.14189
1624.23242	369.0355
1623.23242	542.06789
1622.23242	724.02439
1621.23242	641.59115
1620.23242	672.18907
1619.23242	557.47389
1618.23144	643.15297
1617.23047	544.863
1616.22949	599.8812
1615.22754	795.96224
1614.22656	878.84166
1613.22461	1218.15405
1612.22266	426.49268
1611.2207	819.61602
1610.21777	1115.58287
1609.21484	1200.73896
1608.21289	1292.58613
1607.20898	789.87082
1606.20606	1350.27987
1605.20313	1039.30038
1604.19922	1128.81703
1603.19531	1306.01462
1602.19141	1296.3951
1601.18652	1762.8989
1600.18262	892.3166
1599.17773	1357.13805
1598.17285	1441.30634
1597.16699	1302.51923
1596.16211	1316.21395
1595.15625	1532.9525
1594.15039	1723.71607
1593.14453	1379.70445
1592.13867	1219.44355
1591.13184	1730.51392
1590.125	1620.67147
1589.11816	1780.05265
1588.11133	1615.05048
1587.10449	1694.43297
1586.09668	1611.62904
1585.08887	2044.29462
1584.08106	1878.72507
1583.07324	1945.18818
1582.06445	2249.5928
1581.05664	2334.67375
1580.04785	1994.92657
1579.03906	1905.67147
1578.0293	2169.29777
1577.02051	2650.09389
1576.01074	2426.11949
1575.00098	2496.68764
1573.99023	2636.48017
1572.98047	3006.38837
1571.96973	2431.14749
1570.95898	2736.66051
1569.94824	2955.67483
1568.9375	3324.10495
1567.92578	3416.18981
1566.91504	3524.67462
1565.90332	3571.40791
1564.89063	3651.01337
1563.87891	3949.78508
1562.86621	3835.81567
1561.85352	4207.6961
1560.84082	4514.92613
1559.82813	4192.18612
1558.81445	4759.74428
1557.80176	4843.20955
1556.78809	4989.37015
1555.77441	5018.58933
1554.75977	4781.99862
1553.74609	4933.78421
1552.73144	4610.88707
1551.7168	4542.65226
1550.70117	4110.14879
1549.68652	4584.0928
1548.6709	3959.05135
1547.65527	3562.37752
1546.63965	3937.0264
1545.62402	3847.84237
1544.60742	3533.63772
1543.59082	2974.91442
1542.57422	2755.81633
1541.55762	3173.78594
1540.54004	2846.02531
1539.52344	2450.1132
1538.50586	2156.92049
1537.48828	2641.62557
1536.46973	2537.16702
1535.45215	2216.13382
1534.43359	2592.11125
1533.41504	2481.41941
1532.39648	2595.87926
1531.37695	2542.21433
1530.3584	2800.40009
1529.33887	2816.64597
1528.31934	2835.27488
1527.29883	3104.80916
1526.2793	2843.89488
1525.25879	3089.87232
1524.23828	3241.06025
1523.21777	2998.28291
1522.19629	2766.68026
1521.17578	3044.16094
1520.1543	3028.66008
1519.13281	3512.20869
1518.11035	3220.31459
1517.08887	3086.80721
1516.06641	3433.16203
1515.04394	3447.81524
1514.02148	3052.53833
1512.99805	3127.19371
1511.97559	3649.79571
1510.95215	3089.33238
1509.92871	3372.11776
1508.9043	3159.37557
1507.88086	3258.70001
1506.85644	2897.36949
1505.83203	2713.02726
1504.80762	2429.06524
1503.78223	2363.58868
1502.75781	2326.94697
1501.73242	2178.30526
1500.70703	1910.17071
1499.68066	1852.79408
1498.65527	1595.54896
1497.62891	1484.81448
1496.60254	1211.01663
1495.57617	1188.22355
1494.54883	1435.15812
1493.52246	1112.20494
1492.49512	824.15104
1491.46777	624.27223
1490.43945	522.24255
1489.41211	566.93566
1488.38379	687.81793
1487.35547	920.86841
1486.32715	627.4558
1485.29785	506.07332
1484.26953	571.6465
1483.24023	435.92511
1482.21094	504.32074
1481.18066	612.82655
1480.15137	313.8147
1479.12109	194.18688
1478.09082	351.03657
1477.06055	338.52551
1476.0293	607.72319
1474.99805	698.48093
1473.96777	322.74098
1472.93555	855.89459
1471.9043	453.78477
1470.87207	178.31888
1469.84082	44.40777
1468.80859	226.21552
1467.77539	681.21015
1466.74316	445.27542
1465.70996	791.16553
1464.67676	708.40739
1463.64356	898.74037
1462.61035	1350.751
1461.57617	1488.39792
1460.54199	1491.13208
1459.50781	2005.33868
1458.47363	1935.77813
1457.43848	2432.09671
1456.40332	2267.92613
1455.36816	2706.85322
1454.33301	3131.75621
1453.29785	3254.12492
1452.26172	3290.53659
1451.22559	3321.14337
1450.18945	2731.89315
1449.15332	3300.4283
1448.11621	3111.47214
1447.0791	3140.98929
1446.04199	2763.02444
1445.00488	2951.85908
1443.96777	2557.35734
1442.92969	2506.58347
1441.8916	2403.77878
1440.85352	2366.76598
1439.81543	2548.97865
1438.77637	2302.50231
1437.73731	2461.68156
1436.69824	1992.14423
1435.65918	2118.79593
1434.61914	2052.45901
1433.5791	1854.44198
1432.54004	2135.60105
1431.49902	2115.37112
1430.45898	1922.57902
1429.41797	1817.93058
1428.37695	1944.8785
1427.33594	2050.31361
1426.29492	2200.13393
1425.25293	2041.07989
1424.21094	1645.01923
1423.16894	1886.18286
1422.12695	1938.08607
1421.08496	2177.17462
1420.04199	2123.11385
1418.99902	2284.8734
1417.95606	2013.59302
1416.91211	1959.77216
1415.86914	2046.34519
1414.82519	2258.96997
1413.78125	2078.15508
1412.73731	2414.49102
1411.69238	2088.41615
1410.64746	2393.23581
1409.60254	2355.76945
1408.55762	2365.9053
1407.51172	2310.91593
1406.4668	2680.81719
1405.4209	2645.27314
1404.375	2868.37731
1403.32813	2329.30656
1402.28223	2576.66203
1401.23535	2595.55569
1400.18848	2999.18937
1399.14063	2734.25491
1398.09375	2914.75231
1397.0459	3198.7267
1395.99805	2935.00231
1394.95019	3099.56307
1393.90137	3147.99059
1392.85352	3210.11255
1391.80469	3644.75556
1390.75586	3112.88707
1389.70606	3591.2497
1388.65723	3538.45109
1387.60742	3207.95326
1386.55762	3510.61624
1385.50684	3311.60821
1384.45703	3557.32978
1383.40625	3423.29549
1382.35547	3470.52205
1381.30469	3660.98321
1380.25293	3363.54354
1379.20117	3693.0507
1378.14941	3354.30439
1377.09766	3551.77119
1376.0459	3693.48603
1374.99316	3598.64836
1373.94043	3583.30396
1372.88769	3336.78616
1371.83496	3467.19892
1370.78125	3898.68742
1369.72754	3634.67635
1368.67383	3630.25534
1367.62012	3175.4652
1366.56641	3879.35322
1365.51172	3725.58738
1364.45703	3448.67179
1363.40234	3408.51446
1362.34668	3484.38816
1361.29199	3674.5481
1360.23633	3581.68026
1359.17969	3778.25643
1358.12402	3601.1731
1357.06738	3871.12666
1356.01172	3570.08759
1354.95508	3392.3441
1353.89746	3322.63034
1352.84082	3299.52488
1351.7832	3438.22757
1350.72559	3239.98408
1349.66797	3293.99124
1348.60938	3247.65812
1347.55078	3245.29766
1346.49219	3212.64792
1345.43359	3008.62123
1344.375	2634.3721
1343.31543	2633.3389
1342.25586	3001.56025
1341.19629	2893.42657
1340.13672	2564.51554
1339.07617	2912.74601
1338.01563	2602.8135
1336.95508	2759.39271
1335.89453	2830.35213
1334.83301	2391.83434
1333.77148	2327.81025
1332.70996	2680.25903
1331.64844	2816.2369
1330.58594	2292.56047
1329.52441	2472.72843
1328.46191	2284.6247
1327.39941	2272.52249
1326.33594	2229.18395
1325.27246	2158.19382
1324.20898	1775.98202
1323.14551	1772.04061
1322.08203	1982.79929
1321.01758	2136.75079
1319.95313	1862.63707
1318.88867	1478.33173
1317.82422	1848.07653
1316.75879	2025.87188
1315.69336	1553.11776
1314.62793	1384.72214
1313.5625	1566.69013
1312.49609	1806.09964
1311.43066	1760.74102
1310.36426	1917.11906
1309.29688	1556.10723
1308.23047	1220.37633
1307.16309	1862.06416
1306.0957	1675.33803
1305.02832	1136.01506
1303.95996	1176.08374
1302.89258	1148.45532
1301.82422	1178.13062
1300.75586	870.92817
1299.68652	623.18449
1298.61816	588.4408
1297.54883	466.53949
1296.47949	557.02737
1295.40918	399.9705
1294.33984	387.89472
1293.26953	333.67823
1292.19922	455.40869
1291.12793	463.09699
1290.05762	569.53863
1288.98633	79.48069
1287.91504	137.23248
1286.84375	409.88802
1285.77148	466.29186
1284.69922	603.28072
1283.62695	269.16391
1282.55469	410.42434
1281.48144	341.31634
1280.40918	544.50217
1279.33594	457.44516
1278.26172	561.78102
1277.18848	554.69971
1276.11426	938.2618
1275.04004	1025.46352
1273.96582	1200.69051
1272.8916	851.14114
1271.81641	1063.4238
1270.74121	1357.40986
1269.66602	1538.01305
1268.58984	1154.21655
1267.51465	1225.11418
1266.43848	2011.77271
1265.36231	2017.58488
1264.28516	1862.492
1263.20898	1599.37373
1262.13184	1625.58065
1261.05469	1863.79104
1259.97656	2052.53605
1258.89941	2202.98126
1257.82129	2079.17787
1256.74316	2120.50621
1255.66504	2212.44306
1254.58594	2319.61624
1253.50684	2669.64988
1252.42773	2383.00708
1251.34863	2467.42158
1250.26856	2273.86841
1249.18945	2395.73907
1248.10938	2039.93612
1247.02832	2143.03345
1245.94824	2040.91756
1244.86719	2199.24677
1243.78613	2353.13403
1242.70508	2154.09855
1241.62305	2024.50252
1240.54102	2091.59182
1239.45898	1880.15009
1238.37695	2088.75968
1237.29492	1856.3224
1236.21191	1900.71997
1235.12891	1512.5061
1234.0459	1851.01348
1232.96191	1554.27607
1231.87891	1653.46042
1230.79492	1687.97507
1229.70996	1526.18677
1228.62598	1698.74395
1227.54102	1467.87959
1226.45606	1769.19252
1225.37109	1479.99569
1224.28613	1334.78258
1223.20019	1560.34182
1222.11426	1497.45489
1221.02832	1465.75459
1219.94238	1205.43644
1218.85547	1024.29473
1217.76856	1135.02292
1216.68164	1172.9557
1215.59375	1007.93519
1214.50684	774.7886
1213.41894	802.79555
1212.33106	1131.36754
1211.24219	1143.63013
1210.1543	723.76191
1209.06543	848.96311
1207.97656	478.21005
1206.88672	725.90479
1205.79785	883.53584
1204.70801	676.57794
1203.61816	940.29468
1202.52734	984.677
1201.43652	710.35783
1200.34668	964.70131
1199.25488	963.90036
1198.16406	781.97808
1197.07227	672.1534
1195.98144	486.76535
1194.88867	474.3277
1193.79688	789.5925
1192.7041	444.71965
1191.61231	550.10839
1190.51856	471.71145
1189.42578	397.29455
1188.33203	563.79188
1187.23828	57.2407
1186.14453	228.68134
1185.05078	225.50844
1183.95606	532.77626
1182.86133	540.58034
1181.7666	437.63522
1180.67188	367.00282
1179.57617	532.79842
1178.48047	356.02997
1177.38477	450.41957
1176.28906	244.82834
1175.19238	35.77287
1174.0957	437.30544
1172.99902	349.73906
1171.90234	831.07433
1170.80469	607.70823
1169.70703	734.7583
1168.60938	510.3645
1167.51172	282.98634
1166.41309	623.9707
1165.31445	801.02805
1164.21582	958.30591
1163.11719	1025.3268
1162.01758	951.34584
1160.91797	1475.69426
1159.81836	1437.74916
1158.71777	1559.75068
1157.61816	1620.75296
1156.51758	1740.03236
1155.41699	1631.99265
1154.31543	1679.78215
1153.21387	1795.32685
1152.11231	2249.35192
1151.01074	2046.2152
1149.90918	1893.84324
1148.80664	1905.68134
1147.7041	1951.60995
1146.60156	2396.39662
1145.49805	2569.08282
1144.39551	2307.29137
1143.29199	1890.17744
1142.1875	2248.81285
1141.08398	2413.77574
1139.97949	2011.9334
1138.875	2135.30309
1137.77051	2296.67418
1136.66504	2305.27271
1135.56055	2320.35495
1134.45508	2616.26381
1133.34863	2259.53074
1132.24316	2360.72757
1131.13672	2102.29191
1130.03027	2417.59258
1128.92383	2096.32967
1127.81641	2355.0941
1126.70898	2409.39554
1125.60156	2051.03084
1124.49414	2223.36038
1123.38574	2400.68937
1122.27832	2484.61168
1121.16894	2399.39185
1120.06055	2307.77054
1118.95117	2184.3581
1117.84277	2257.11277
1116.73242	2329.46845
1115.62305	2359.49015
1114.51269	2169.28518
1113.40332	1803.82208
1112.29199	1522.38512
1111.18164	1566.98093
1110.07031	1819.38816
1108.95898	1672.96335
1107.84766	1447.10224
1106.73633	1635.57533
1105.62402	1516.12796
1104.51172	1575.48614
1103.39941	1806.08738
1102.28613	2151.13436
1101.17383	1837.47127
1100.06055	1970.9895
1098.94629	2027.6259
1097.83301	1882.2191
1096.71875	2068.39543
1095.60449	2197.09855
1094.49023	1935.23853
1093.375	1841.00925
1092.25977	2096.41094
1091.14453	1891.52715
1090.0293	1462.7816
1088.91309	1568.08965
1087.79785	1568.98896
1086.68164	1406.5877
1085.56445	1626.62828
1084.44824	1526.28171
1083.33106	1609.55059
1082.21289	1318.69143
1081.0957	1433.265
1079.97754	1680.26609
1078.85938	1199.98207
1077.74121	1368.39206
1076.62305	952.85729
1075.50391	1135.77005
1074.38477	929.81416
1073.26563	992.71862
1072.14551	826.63922
1071.02637	821.0835
1069.90625	466.16145
1068.78516	430.33086
1067.66504	400.31508
1066.54394	175.23028
1065.42285	558.17757
1064.30078	321.13116
1063.17969	474.301
1062.05762	461.12186
1060.93555	490.27828
1059.81348	625.83214
1058.69043	761.764
1057.56738	695.55705
1056.44434	778.59239
1055.32031	938.38501
1054.19727	820.34668
1053.07324	1106.01495
1051.94824	1434.35398
1050.82422	1601.10875
1049.69922	1831.25404
1048.57422	1826.66854
1047.44922	1678.00361
1046.32324	1436.00968
1045.19727	1267.37074
1044.07129	1130.75882
1042.94531	1072.83179
1041.81836	913.77732
1040.69238	874.14513
1039.56445	780.57796
1038.4375	843.65118
1037.30957	952.87351
1036.18164	690.71281
1035.05371	564.09037
1033.92578	887.75361
1032.79688	929.43134
1031.66797	693.24371
1030.53906	1077.12535
1029.40918	760.8119
1028.2793	914.45077
1027.14941	740.97635
1026.01953	715.03117
1024.88867	461.10766
1023.75879	320.41918
1022.62695	336.95667
1021.49609	491.99968
1020.36426	711.64052
1019.23242	624.73348
1018.10059	465.62869
1016.96875	763.63447
1015.83594	276.97221
1014.70313	456.91204
1013.57031	901.08135
1012.43652	900.39597
1011.30273	576.20873
1010.16895	915.50079
1009.03516	788.33664
1007.90039	1260.36814
1006.7666	1347.53312
1005.63086	1711.24894
1004.49609	2220.67776
1003.36035	2922.01728
1002.22461	2963.96585
1001.08887	3119.03833
999.95313	3100.32609
998.81641	2664.5086
997.67969	2435.42201
996.54297	2767.70587
995.40527	2555.54701
994.26758	2829.08586
993.12988	2903.73994
991.99219	3014.48104
990.85352	3341.64206
989.71484	3629.91811
988.57617	3995.93438
987.4375	4107.8849
986.29785	4186.42136
985.1582	4454.42613
984.01855	4842.83542
982.87793	5103.09367
981.7373	5419.17223
980.59668	5454.37535
979.45605	5735.10539
978.31445	5694.87449
977.17285	5758.04983
976.03125	5595.49775
974.88965	5971.93916
973.74707	6124.55417
972.60449	6283.52683
971.46191	6542.29376
970.31836	6580.34714
969.17578	6642.68916
968.03223	6791.75079
966.8877	6962.16225
965.74414	7525.78681
964.59961	7504.71476
963.45508	7534.04636
962.30957	7170.5724
961.16406	7943.31719
960.01855	7898.47171
958.87305	8001.0533
957.72754	8173.21303
956.58105	7809.10278
955.43457	7884.43178
954.28809	8254.62101
953.14063	8416.35105
951.99316	8493.21216
950.8457	8560.00035
949.69727	8971.99254
948.5498	9044.57501
947.40137	8766.43872
946.25293	9183.13143
945.10352	9577.55678
943.9541	9746.51858
942.80469	9708.95261
941.65527	9704.18785
940.50488	10048.80591
939.35449	10053.21042
938.2041	10201.45261
937.05371	9552.95955
935.90234	9046.62535
934.75098	8766.91702
933.59961	8147.18872
932.44727	7378.87318
931.29492	6470.70391
930.14258	5864.49732
928.99023	4746.88056
927.83691	3806.89488
926.68359	2686.47019
925.53027	2257.31741
924.37598	1608.24829
923.22266	1585.16181
922.06836	947.5533
920.91309	647.14772
919.75879	905.0316
918.60352	780.52664
917.44824	488.91019
916.29199	379.35477
915.13672	467.0098
913.98047	420.12032
912.82324	552.16825
911.66699	357.3658
910.50977	175.06201
909.35254	445.55547
908.19531	371.2103
907.03711	372.83775
905.87891	438.89641
904.7207	118.8894
903.56152	484.25987
902.40332	65.39833
901.24414	505.86505
900.08398	471.20823
898.9248	351.05516
897.76465	424.53869
896.60449	516.96564
895.44336	496.25815
894.2832	298.59656
893.12207	489.32159
891.95996	248.67288
890.79883	752.03293
889.63672	1406.48527
888.47461	1134.48359
887.31152	1396.08195
886.14941	1612.20565
884.98633	1880.44458
883.82324	2329.17006
882.65918	2792.29701
881.49512	2993.10691
880.33105	3550.1668
879.16699	3200.12774
878.00195	2882.42505
876.83691	2853.51468
875.67188	2556.63121
874.50684	2250.72409
873.34082	1948.13186
872.1748	1511.242
871.00781	1338.66366
869.8418	1178.32023
868.6748	480.16769
867.50781	694.8029
866.33984	751.82107
865.17285	499.20975
864.00488	206.76803
862.83594	293.69641
861.66797	551.34824
860.49902	163.45966
859.33008	601.98009
858.16016	289.654
856.99121	424.35723
855.82129	481.75243
854.65039	124.26677
853.48047	468.32935
852.30957	498.24828
851.13867	519.95754
849.9668	539.61134
848.7959	690.85924
847.62402	674.25526
846.45117	779.30748
845.2793	894.5277
844.10645	873.17803
842.93359	1070.09709
841.75977	820.62666
840.58691	938.42603
839.41309	897.63181
838.23926	951.44832
837.06445	931.59584
835.88965	986.98408
834.71484	1055.39364
833.54004	721.06014
832.36426	434.78037
831.18848	599.36085
830.0127	530.36398
828.83594	658.85395
827.65918	418.92967
826.48242	376.00461
825.30566	698.22843
824.12793	559.17586
822.9502	552.58211
821.77246	589.10414
820.59375	1035.96959
819.41602	789.059
818.2373	839.31654
817.05762	547.8334
815.87793	1269.35631
814.69824	971.19225
813.51855	938.99873
812.33887	852.83637
811.1582	559.01987
809.97754	1043.19252
808.7959	1042.18991
807.61523	776.96767
806.43359	930.01126
805.25098	641.94411
804.06934	578.18046
802.88672	374.04964
801.7041	620.05675
800.52051	345.36406
799.33789	680.55971
798.1543	554.65016
796.96973	504.99531
795.78613	376.86739
794.60156	328.24519
793.41699	201.20349
792.23145	159.71376
791.04688	300.33287
789.86035	527.28685
788.6748	454.14232
787.48926	255.59644
786.30273	544.58262
785.11523	424.5823
783.92871	352.24887
782.74121	254.8672
781.55371	486.10167
780.36621	335.79792
779.17773	338.4172
777.98926	597.22072
776.80078	443.57119
775.6123	242.16462
774.42285	744.4761
773.2334	468.43971
772.04297	914.89857
770.85352	690.81226
769.66309	744.01156
768.47168	825.67811
767.28125	1013.83293
766.08984	891.76527
764.89844	819.12617
763.70605	824.68205
762.51465	963.59812
761.32227	856.66382
760.12891	820.93799
758.93652	1024.25459
757.74316	659.59069
756.5498	767.22686
755.35547	472.21367
754.16211	615.86557
752.9668	526.15649
751.77246	611.26789
750.57715	711.34359
749.38281	765.70622
748.18652	566.61149
746.99121	675.02612
745.79492	606.86121
744.59863	477.85483
743.40137	498.91354
742.20508	501.1757
741.00781	552.60769
739.81055	430.9178
738.6123	417.10195
737.41406	442.71459
736.21582	232.99892
735.0166	264.0577
733.81836	292.47601
732.61914	215.84779
731.41895	465.54339
730.21973	362.45142
729.01953	283.52976
727.81934	373.02631
726.61816	300.39914
725.41699	403.9193
724.21582	254.62063
723.01465	344.95667
721.8125	322.554
720.61035	371.1327
719.4082	373.28021
718.20508	542.96545
717.00195	574.17417
715.79883	506.54079
714.5957	838.93886
713.3916	812.23809
712.1875	949.6024
710.98242	1025.34139
709.77832	994.44756
708.57324	1089.81985
707.36719	1496.81437
706.16211	1262.82164
704.95605	1580.40519
703.75	1411.00632
702.54297	1658.93731
701.33691	1817.1808
700.12988	1834.01587
698.92188	2008.33282
697.71484	2053.60647
696.50684	2197.59606
695.29785	2585.84627
694.08984	2757.52574
692.88086	2664.27965
691.67188	2812.85821
690.46289	2850.77249
689.25293	2790.89988
688.04297	3188.89857
686.83301	3375.54267
685.62207	3510.93568
684.41113	3638.04788
683.2002	3439.33238
681.98828	3874.64684
680.77637	4052.57935
679.56445	4605.13751
678.35254	4596.35539
677.13965	5143.66398
675.92676	5169.07501
674.71387	5064.26728
673.5	4799.66832
672.28613	4506.19393
671.07227	4290.47995
669.8584	3927.80873
668.64355	3724.38186
667.42871	3709.65031
666.21289	3459.54289
664.99805	3267.80222
663.78223	3175.77401
662.56543	3275.26511
661.34961	3212.64705
660.13281	3135.81633
658.91602	3099.76294
657.69824	3206.24254
656.48047	3246.98256
655.2627	3239.71541
654.04492	3214.8823
652.82617	3144.2905
651.60742	3325.79028
650.38867	3125.06654
649.16895	3543.85474
647.94922	3521.45391
646.72949	3898.60539
645.50879	3747.19545
644.28809	3860.49992
643.06738	4398.75513
641.84668	4679.19697
640.625	4893.14836
639.40332	5313.75296
638.18164	5706.2777
636.95898	5936.69697
635.73633	6293.88317
634.51367	6718.89098
633.29004	6520.41659
632.06641	6763.96476
630.84277	6620.42787
629.61914	6703.01902
628.39453	6584.46129
627.16992	6370.64011
625.94531	6539.06502
624.71973	6303.18265
623.49414	6019.08238
622.26855	6022.62015
621.04199	5738.16832
619.81543	6029.0494
618.58887	5902.529
617.36133	5820.17657
616.13477	5278.03464
614.90723	5662.32457
613.67871	5443.89575
612.4502	5573.81155
611.22168	5423.09107
609.99316	4856.86103
608.76367	4533.1132
607.53418	4442.74949
606.30469	4405.19306
605.0752	3716.88403
603.84473	3301.59584
602.61426	3085.48863
601.38281	3005.47388
600.15137	2796.40465
598.91992	2496.64033
597.68848	2372.23278
596.45605	2393.40834
595.22363	1732.2956
593.99121	1615.33108
592.75781	1529.65205
591.52441	1520.26847
590.29102	1367.4346
589.05762	1282.12638
587.82324	888.19252
586.58887	813.55496
585.35352	621.13227
584.11816	1005.62638
582.88281	673.23815
581.64746	596.33609
580.41113	641.86442
579.1748	638.56601
577.93848	415.72473
576.70117	463.01521
575.46484	276.54736
574.22656	466.37868
572.98926	290.15028
571.75098	559.83244
570.5127	424.24081
569.27344	249.25308
568.03516	624.79994
566.7959	528.18844
565.55566	499.27604
564.31641	370.62886
563.07617	122.9123
561.83496	314.99089
560.59473	113.53074
559.35352	195.41078
558.11133	224.29829
556.87012	-20.34044
555.62793	462.64468
554.38574	363.7202
553.14355	538.6887
551.90039	689.09671
550.65723	598.25338
549.41309	1030.39288