#Wave		#Intensity
1800.529297	23.908512
1798.058594	-67.118149
1795.587891	27.784344
1793.115234	-0.466026
1790.642578	21.742069
1788.169922	61.408947
1785.697266	107.699554
1783.222656	110.529839
1780.746094	18.853296
1778.269531	-27.259354
1775.792969	22.608059
1773.316406	7.746459
1770.837891	-52.542412
1768.357422	27.746466
1765.878906	19.713087
1763.398438	66.084038
1760.916016	23.426914
1758.435547	-43.839462
1755.951172	7.782904
1753.468750	-27.216330
1750.984375	0.639673
1748.498047	-21.858141
1746.013672	30.643564
1743.527344	53.964031
1741.039063	-16.889238
1738.550781	27.398401
1736.062500	25.683924
1733.574219	-33.957767
1731.083984	-25.468246
1728.591797	-25.851620
1726.099609	3.908978
1723.607422	-1.130724
1721.115234	19.996519
1718.621094	74.254372
1716.126953	6.926158
1713.630859	39.628746
1711.134766	27.647585
1708.636719	105.634865
1706.140625	57.200817
1703.640625	112.638062
1701.142578	88.559540
1698.642578	118.473259
1696.140625	78.852432
1693.640625	60.355034
1691.138672	41.036407
1688.634766	-62.680313
1686.130859	-43.858906
1683.626953	-34.855839
1681.121094	8.046177
1678.615234	25.194395
1676.109375	26.531340
1673.601563	124.259407
1671.093750	153.492249
1668.583984	221.450455
1666.074219	233.840973
1663.564453	499.162537
1661.052734	691.936279
1658.541016	1083.825928
1656.027344	1611.206421
1653.513672	2901.034424
1651.000000	4621.832031
1648.484375	6123.711426
1645.968750	5666.876953
1643.453125	4199.008789
1640.935547	2796.217529
1638.417969	1723.460205
1635.898438	1133.649048
1633.378906	954.206482
1630.859375	790.555115
1628.337891	790.815063
1625.816406	698.125610
1623.292969	729.711792
1620.769531	833.169189
1618.246094	764.769348
1615.720703	897.430908
1613.195313	1010.143188
1610.669922	987.610291
1608.142578	912.707397
1605.613281	1100.679321
1603.085938	1168.267334
1600.556641	1340.985718
1598.025391	1620.710815
1595.494141	1752.555298
1592.962891	1506.518799
1590.429688	1338.160522
1587.896484	1313.283813
1585.363281	1402.286255
1582.828125	1681.679688
1580.292969	2376.193359
1577.755859	3093.739258
1575.218750	3755.802979
1572.681641	3711.955811
1570.142578	3499.350098
1567.603516	3160.324951
1565.062500	2701.853760
1562.521484	2027.055908
1559.980469	1654.369751
1557.437500	1478.729248
1554.894531	1264.029419
1552.349609	1160.054321
1549.804688	1128.567993
1547.259766	994.427246
1544.712891	1028.592651
1542.166016	862.395569
1539.619141	799.961304
1537.070313	660.455505
1534.519531	800.448547
1531.970703	842.842163
1529.417969	849.194336
1526.867188	920.094238
1524.314453	901.343567
1521.761719	1026.121582
1519.207031	1471.727905
1516.652344	2482.519531
1514.095703	3958.603027
1511.539063	6066.131348
1508.982422	7287.503906
1506.423828	6915.858887
1503.865234	5984.175781
1501.306641	4744.938965
1498.746094	3532.979492
1496.185547	2398.851074
1493.623047	1579.633789
1491.060547	1040.083740
1488.496094	660.471863
1485.931641	342.596466
1483.367188	207.754150
1480.800781	178.142624
1478.234375	77.116150
1475.667969	179.217682
1473.099609	295.197418
1470.531250	267.069183
1467.960938	168.605911
1465.390625	230.431854
1462.818359	40.839737
1460.246094	-23.343061
1457.673828	-19.325041
1455.099609	-0.381193
1452.525391	113.763290
1449.951172	171.222794
1447.375000	188.480286
1444.796875	378.164429
1442.220703	368.215790
1439.642578	348.091461
1437.062500	626.738159
1434.482422	863.198608
1431.902344	765.169495
1429.320313	693.692688
1426.738281	559.072632
1424.154297	778.752441
1421.570313	1120.169800
1418.986328	1227.734985
1416.400391	1124.774780
1413.814453	754.679932
1411.226563	400.658386
1408.638672	271.483856
1406.050781	289.035431
1403.460938	327.209137
1400.871094	278.318146
1398.279297	314.456635
1395.687500	378.860291
1393.095703	493.587402
1390.501953	559.699463
1387.908203	759.595520
1385.312500	784.188171
1382.716797	1114.197021
1380.119141	1213.301758
1377.521484	1273.429810
1374.923828	1268.735962
1372.324219	1443.576294
1369.724609	2230.671631
1367.125000	4300.617188
1364.523438	6762.074707
1361.919922	9204.184570
1359.318359	8329.681641
1356.712891	5769.207031
1354.109375	4081.511475
1351.503906	2897.857178
1348.896484	2037.205688
1346.291016	1330.183472
1343.681641	737.516113
1341.074219	310.609680
1338.464844	168.590897
1335.853516	120.406700
1333.242188	8.607501
1330.630859	124.003349
1328.017578	159.510040
1325.404297	432.441986
1322.789063	792.093201
1320.173828	1218.370972
1317.558594	1814.953369
1314.941406	2842.406494
1312.324219	4290.798828
1309.705078	4896.865234
1307.085938	4527.324707
1304.466797	3439.674561
1301.845703	2502.951172
1299.224609	1845.217407
1296.601563	1620.030762
1293.978516	1515.636475
1291.353516	1625.863037
1288.728516	1601.406372
1286.103516	1255.566284
1283.476563	976.381470
1280.849609	868.968323
1278.220703	1009.910522
1275.591797	990.744568
1272.962891	715.033813
1270.332031	618.430603
1267.701172	569.220581
1265.068359	507.768066
1262.435547	465.273041
1259.800781	303.698273
1257.166016	497.563080
1254.531250	299.210327
1251.894531	264.366089
1249.257813	35.956989
1246.619141	-16.767578
1243.980469	-27.036715
1241.341797	40.950111
1238.701172	23.983803
1236.058594	-42.981968
1233.417969	44.581284
1230.775391	-74.292427
1228.130859	97.876602
1225.486328	311.291321
1222.839844	190.360336
1220.195313	-7.745536
1217.546875	-19.543129
1214.900391	28.750851
1212.250000	-18.006392
1209.601563	101.501526
1206.951172	251.847992
1204.298828	555.097656
1201.648438	689.041992
1198.994141	756.173889
1196.341797	845.665955
1193.685547	904.055725
1191.031250	1116.074951
1188.375000	1601.587280
1185.718750	1914.247559
1183.060547	2366.194824
1180.400391	2972.281738
1177.742188	3242.682129
1175.082031	2643.292725
1172.419922	1697.969971
1169.757813	978.547485
1167.095703	625.075378
1164.431641	408.194061
1161.767578	226.841064
1159.101563	186.556274
1156.435547	130.301971
1153.767578	22.624985
1151.101563	107.155769
1148.431641	75.836655
1145.761719	166.610397
1143.091797	181.684586
1140.419922	254.436600
1137.748047	336.349060
1135.076172	589.506226
1132.402344	916.903076
1129.726563	1289.609131
1127.052734	1827.627686
1124.375000	1796.744995
1121.699219	1246.774414
1119.019531	964.843506
1116.341797	701.571350
1113.662109	502.487091
1110.982422	253.266830
1108.300781	96.974983
1105.617188	63.232510
1102.935547	-3.071975
1100.251953	39.125031
1097.566406	17.214464
1094.880859	195.494492
1092.193359	320.746735
1089.507813	580.179749
1086.818359	693.019104
1084.128906	614.945435
1081.439453	375.763336
1078.750000	206.979889
1076.058594	53.953724
1073.365234	5.453377
1070.671875	-19.983511
1067.978516	-27.923046
1065.283203	-10.060525
1062.587891	23.414888
1059.890625	65.107460
1057.193359	125.158356
1054.494141	205.401321
1051.794922	391.604492
1049.095703	325.855835
1046.394531	147.606918
1043.693359	149.111221
1040.990234	103.558334
1038.287109	70.855515
1035.582031	4.037617
1032.876953	66.971352
1030.169922	59.865444
1027.462891	-15.377986
1024.755859	-24.437777
1022.046875	0.452598
1019.337891	71.203117
1016.626953	72.019836
1013.916016	173.786667
1011.203125	171.673584
1008.490234	302.571198
1005.777344	298.436432
1003.062500	288.731598
1000.347656	169.844208
997.630859	127.043106
994.914063	82.362457
992.195313	29.395218
989.476563	-2.550119
986.755859	-6.166281
984.035156	-13.515435
981.314453	-12.700487
978.591797	-11.042355
975.867188	-9.455997
973.142578	-72.839775
970.417969	-16.559498
967.691406	-28.892286
964.964844	27.195333
962.238281	30.229694
959.509766	75.171394
956.779297	44.298801
954.048828	32.527679
951.318359	24.342394
948.585938	73.515167
945.853516	29.659134
943.119141	98.709099
940.384766	103.006172
937.648438	207.366760
934.912109	393.495972
932.175781	563.985596
929.437500	826.159058
926.697266	882.669983
923.957031	634.661987
921.216797	376.774994
918.474609	330.620361
915.732422	279.010376
912.988281	241.924225
910.244141	160.374237
907.500000	126.923676
904.753906	148.786484
902.005859	167.902588
899.257813	178.841049
896.509766	120.923203
893.759766	112.851021
891.009766	41.422119
888.257813	-23.610975
885.505859	43.500771
882.751953	19.254059
879.998047	-59.190487
877.242188	-6.489935
874.486328	-38.706631
871.730469	-43.750763
868.972656	-31.570864
866.214844	-19.328108
863.455078	55.250908
860.693359	36.057259
857.933594	49.433098
855.169922	71.023857
852.408203	17.011623
849.644531	60.457100
846.878906	21.153532
844.113281	79.250999
841.347656	23.158121
838.580078	34.745209
835.810547	55.492615
833.041016	-2.719796
830.271484	-51.717178
827.500000	13.638163
824.728516	36.939735
821.955078	91.877151
819.181641	26.713869
816.408203	-21.120800
813.630859	-4.077963
810.855469	-33.432194
808.078125	-28.431709
805.298828	-13.299829
802.521484	-40.910213
799.740234	20.466249
796.958984	62.398636
794.177734	35.683174
791.394531	72.829445
788.611328	174.670364
785.826172	309.857086
783.041016	627.641663
780.255859	1468.326538
777.466797	2770.672607
774.679688	3875.135986
771.890625	3690.967041
769.099609	3175.264648
766.308594	2778.900146
763.517578	1643.752808
760.724609	701.389282
757.931641	254.657623
755.136719	143.588715
752.341797	43.614910
749.544922	8.157282
746.748047	33.577084
743.949219	103.801041
741.150391	31.956800
738.349609	42.284935
735.548828	-8.443639
732.748047	-56.193409
729.945313	-6.796879
727.140625	-6.903323
724.335938	-41.396656
721.531250	12.221943
718.724609	1.251532
715.917969	-32.586964
713.109375	-76.866203
710.300781	-25.242603
707.490234	57.494434
704.679688	81.810997
701.867188	87.600105
699.054688	35.890919
696.240234	12.563572
693.425781	-15.183042
690.611328	44.599342
687.794922	10.570444
684.976563	-36.785107
682.158203	31.490339
679.339844	4.163836
676.519531	83.493492
673.697266	26.616594
670.875000	49.792252
668.052734	77.049202
665.228516	226.513519
662.404297	468.047211
659.578125	619.128784
656.751953	435.792267
653.923828	166.670914
651.095703	145.442795
648.265625	196.713440
645.435547	212.160721
642.603516	389.671631
639.771484	490.795685
636.939453	515.579956
634.105469	305.934601
631.269531	180.008636
628.433594	221.102814
625.595703	162.214706
622.757813	249.981567
619.919922	431.621429
617.080078	1174.402100
614.240234	4338.706055
611.398438	9143.144531
608.554688	3824.270752
605.712891	1091.438354
602.867188	409.878021
600.021484	235.639252
597.175781	141.350082
594.328125	107.747200
591.480469	92.872856
588.630859	-20.325823
585.781250	-33.334908
582.931641	-17.767216
580.078125	22.970842
577.226563	23.532965
574.373047	61.760117
571.517578	182.267014
568.662109	440.094147
565.804688	335.849762
562.947266	207.343658
560.089844	84.467255
557.230469	121.623070
554.369141	43.004833
551.507813	18.747286
548.646484	-50.018963
