#Wave		#Intensity
1800.60156	-2.7972E-6
1798.94824	372.68547
1797.2959	250.18565
1795.6416	565.56804
1793.98828	101.26574
1792.33398	475.43655
1790.67871	596.01284
1789.02344	873.19344
1787.36816	150.69758
1785.71191	275.30051
1784.05566	453.39219
1782.39844	332.42738
1780.74121	809.48136
1779.08398	679.85801
1777.42578	440.19044
1775.76758	592.94638
1774.1084	297.53
1772.44922	559.00106
1770.78906	511.8243
1769.12891	660.10883
1767.46875	380.18905
1765.80762	205.23082
1764.14551	647.97103
1762.48438	638.56453
1760.82129	410.03861
1759.15918	367.20909
1757.49609	351.98407
1755.83203	436.79383
1754.16797	155.09542
1752.50391	373.60764
1750.83887	292.98079
1749.17383	198.07216
1747.50879	361.88402
1745.84277	483.29777
1744.17578	339.89924
1742.50879	92.90518
1740.8418	-50.73057
1739.17383	-91.05925
1737.50586	66.94054
1735.83691	-8.91391
1734.16797	375.44501
1732.49902	132.85248
1730.8291	94.85798
1729.15918	170.66275
1727.48828	284.06759
1725.81738	355.89329
1724.14551	193.40073
1722.47363	360.22744
1720.80078	148.04953
1719.12891	338.94834
1717.45508	201.91724
1715.78125	575.81985
1714.10742	475.20007
1712.43359	232.09637
1710.75781	344.47811
1709.08301	440.03567
1707.40723	172.63505
1705.73144	135.70233
1704.05469	435.93699
1702.37695	215.37417
1700.70019	261.25216
1699.02246	406.14451
1697.34375	411.28145
1695.66504	390.82181
1693.98633	423.52988
1692.30664	660.6164
1690.62695	214.66654
1688.94629	557.51136
1687.26563	919.83237
1685.58398	744.3084
1683.90234	921.77188
1682.21973	1223.07346
1680.53809	1297.27634
1678.85449	1135.07101
1677.1709	1751.35767
1675.48731	1322.32679
1673.80371	1790.27027
1672.11816	2178.66966
1670.43359	2172.44015
1668.74805	2194.28408
1667.06152	2362.87479
1665.37598	2955.86863
1663.68848	2834.16095
1662.00195	2907.56225
1660.31348	2902.33099
1658.62598	3303.38352
1656.9375	3455.45035
1655.24805	4039.11103
1653.55859	4153.1807
1651.86914	4481.15716
1650.17871	4964.07176
1648.48828	5374.19079
1646.79688	5594.10242
1645.10547	6146.88836
1643.41406	6535.19078
1641.72168	6571.79821
1640.02832	7134.34943
1638.33496	7346.30652
1636.6416	7558.49579
1634.94727	8260.07878
1633.25293	8639.96569
1631.55762	8705.5224
1629.86231	9408.06897
1628.16699	9873.30403
1626.4707	10695.70419
1624.77344	10292.49724
1623.07617	11395.86672
1621.37891	11396.21159
1619.68066	12114.53409
1617.98242	12148.87358
1616.2832	12427.27994
1614.58398	12671.94231
1612.88477	13167.68094
1611.18457	13634.65401
1609.4834	13910.09244
1607.7832	14412.95657
1606.08106	14793.91428
1604.37988	15220.04928
1602.67676	16003.11719
1600.97461	15939.46717
1599.27148	16258.4876
1597.56738	16847.48044
1595.86328	16903.18548
1594.15918	16849.99628
1592.4541	17060.71798
1590.74805	17294.21749
1589.04297	17462.87735
1587.33691	17470.7076
1585.62988	17525.9947
1583.92285	18246.93684
1582.21484	18160.49399
1580.50684	18277.70061
1578.79883	17916.59238
1577.08984	18545.80731
1575.38086	18126.31703
1573.6709	18443.1822
1571.95996	18645.70351
1570.25	18189.61467
1568.53906	18227.27721
1566.82715	18181.50579
1565.11523	17165.57348
1563.40332	17546.51344
1561.69043	17219.87172
1559.97656	17150.75568
1558.26269	16589.2418
1556.54883	16793.35156
1554.83398	16508.24312
1553.11914	16840.1091
1551.4043	16477.09145
1549.6875	16490.20607
1547.97168	16180.48416
1546.25488	16091.69072
1544.53711	15462.20946
1542.82031	14688.04534
1541.10156	14615.35768
1539.38281	14195.16674
1537.66406	13954.53901
1535.94434	13511.51016
1534.22461	13442.46378
1532.50488	13149.99355
1530.78418	13376.98355
1529.0625	13744.72968
1527.34082	13613.06447
1525.61914	14017.82709
1523.89648	14027.5613
1522.17383	14104.57042
1520.45019	14359.90532
1518.72656	14240.04764
1517.00195	13646.28808
1515.27734	13760.32873
1513.55176	13730.75459
1511.82617	12880.7382
1510.09961	11730.4104
1508.37402	11289.76082
1506.64648	10655.64191
1504.91894	10398.95007
1503.19141	9313.17783
1501.46289	8627.06004
1499.73438	7871.04496
1498.00488	7046.17198
1496.27539	6386.16324
1494.54492	5144.0874
1492.81445	4107.35465
1491.08398	4117.8025
1489.35254	2959.11263
1487.62012	2360.52387
1485.88769	1885.48938
1484.15527	1482.69721
1482.42188	1638.29896
1480.68848	889.61058
1478.9541	795.6852
1477.21973	701.60334
1475.48438	194.85428
1473.74902	121.66674
1472.01269	69.41509
1470.27637	274.83912
1468.54004	291.62587
1466.80273	877.62579
1465.06445	274.86272
1463.32715	847.57609
1461.58789	790.99168
1459.84863	1091.96858
1458.10938	1387.87837
1456.36914	2284.15087
1454.62891	2442.74958
1452.88867	3033.51594
1451.14648	3053.07997
1449.40527	3204.82924
1447.66309	3465.59909
1445.91992	3565.53865
1444.17676	3113.25875
1442.43359	3079.88746
1440.68945	2562.5178
1438.94531	2009.73835
1437.20019	1503.37772
1435.4541	1386.58007
1433.70898	1276.1434
1431.96191	419.13358
1430.21582	460.04291
1428.46875	236.0905
1426.7207	92.20137
1424.97266	278.36485
1423.22363	586.16753
1421.47461	467.98682
1419.72559	438.70768
1417.97559	189.78064
1416.22461	860.38208
1414.47461	872.52474
1412.72266	1511.24161
1410.9707	1888.42385
1409.21875	2246.74221
1407.46582	2613.0013
1405.71289	2699.17338
1403.95898	2699.06531
1402.20508	3006.85647
1400.45117	3072.46798
1398.69531	4381.35009
1396.94043	5239.33366
1395.18457	6700.86973
1393.42773	9363.28914
1391.6709	11660.61487
1389.91406	14559.22378
1388.15625	17380.0389
1386.39844	18437.49219
1384.63965	19540.88352
1382.87988	19856.69837
1381.12109	18756.14521
1379.36035	16823.0377
1377.60059	15771.06955
1375.83887	13825.59998
1374.07813	12145.87833
1372.31641	10571.57968
1370.55371	9711.2329
1368.79102	8892.5389
1367.02734	8108.54291
1365.26367	7507.26177
1363.5	7135.90305
1361.73535	6783.10653
1359.96973	6197.26806
1358.2041	6288.8225
1356.43848	5406.68301
1354.67188	5681.73696
1352.90527	5150.97319
1351.13769	5188.38612
1349.37012	5078.41118
1347.60156	5273.11965
1345.83301	5047.68497
1344.06348	5281.28316
1342.29394	6186.02325
1340.52344	5619.97279
1338.75293	5766.36566
1336.98144	5105.70235
1335.20996	5578.75571
1333.4375	5307.81561
1331.66504	5425.10965
1329.89258	5112.19273
1328.11914	5781.28862
1326.34473	5522.41659
1324.57031	5090.89035
1322.7959	5386.45314
1321.02051	5040.29383
1319.24414	6020.85375
1317.46875	5682.17095
1315.69141	5756.08785
1313.91406	6139.306
1312.13672	5427.90514
1310.3584	5412.8415
1308.58008	5822.31791
1306.80078	5440.39285
1305.02148	5253.96126
1303.24121	5444.81538
1301.46094	5076.68068
1299.67969	5087.62296
1297.89844	4710.96998
1296.11621	4653.54469
1294.33398	4594.59992
1292.55176	3847.50059
1290.76856	4431.06804
1288.98438	4078.54981
1287.20019	4187.14732
1285.41504	4082.3386
1283.62988	4031.48564
1281.84473	3971.14296
1280.05859	3518.20815
1278.27148	3757.71215
1276.48438	3388.29119
1274.69727	3699.14606
1272.90918	3286.42753
1271.12109	3475.72905
1269.33203	4008.64125
1267.54199	3633.5074
1265.75195	3008.62094
1263.96191	2629.20165
1262.1709	2615.6288
1260.37988	2543.76199
1258.58789	2853.88427
1256.7959	2556.62496
1255.00293	2558.68581
1253.20996	2204.34608
1251.41602	2601.55435
1249.62207	2277.41464
1247.82715	2522.94619
1246.03223	2329.83573
1244.23633	2431.58142
1242.44043	2366.42934
1240.64356	1806.94644
1238.84668	2749.543
1237.04883	2234.6412
1235.25098	2297.08674
1233.45313	2529.77854
1231.6543	1758.5156
1229.85449	1811.0591
1228.05469	1706.72569
1226.25391	1280.28645
1224.45313	1027.9882
1222.65234	363.89858
1220.84961	291.52266
1219.04785	673.10829
1217.24512	-187.71811
1215.44141	422.44685
1213.63769	56.18587
1211.83398	326.00228
1210.0293	363.0607
1208.22363	769.45775
1206.41797	1192.8836
1204.61231	1474.26369
1202.80566	1930.84422
1200.99805	1879.32696
1199.19043	2044.49168
1197.38281	1657.66648
1195.57422	1240.20232
1193.76465	869.13409
1191.95508	1171.80547
1190.14551	698.8813
1188.33496	925.4068
1186.52441	460.46874
1184.71289	455.27137
1182.90039	495.27099
1181.08789	-187.21467
1179.27539	205.46
1177.46191	303.19362
1175.64844	348.12234
1173.83398	321.13423
1172.01856	614.71312
1170.20313	207.04263
1168.38769	655.05734
1166.57129	791.39455
1164.75488	1041.82893
1162.9375	1044.12265
1161.11914	1444.13162
1159.30078	1770.33508
1157.48242	2293.7637
1155.66309	2742.47197
1153.84375	3268.64453
1152.02344	3414.99949
1150.20313	4089.4139
1148.38184	4247.43981
1146.55957	4246.03438
1144.73731	4436.97215
1142.91504	4621.39734
1141.0918	4556.7793
1139.26856	3938.6907
1137.44434	3348.01721
1135.61914	3312.49253
1133.79394	3145.668
1131.96875	2974.5232
1130.14258	2581.69683
1128.31641	2425.888
1126.48926	2584.13585
1124.66113	2163.45629
1122.83398	1665.27411
1121.00488	1812.55467
1119.17578	1482.27893
1117.34668	1517.16398
1115.5166	1653.38292
1113.68555	1218.34439
1111.85449	1450.66502
1110.02344	1984.73408
1108.19141	1789.08303
1106.35938	2096.72156
1104.52637	2363.89386
1102.69238	1958.14512
1100.8584	2327.89968
1099.02441	1811.43948
1097.18945	2128.06563
1095.35352	1869.2612
1093.51758	1798.93607
1091.68164	1424.84664
1089.84473	1183.32763
1088.00684	1494.0833
1086.16894	1438.59577
1084.33106	1808.98339
1082.49219	1327.58255
1080.65234	1490.77272
1078.8125	1604.29495
1076.97168	1488.46337
1075.13086	1867.01869
1073.29004	1610.49587
1071.44824	2222.56137
1069.60547	2058.04285
1067.76269	2152.1174
1065.91894	2736.05671
1064.07519	2945.33661
1062.23047	3118.28122
1060.38574	3152.94646
1058.54102	3644.82426
1056.69434	3984.24187
1054.84863	4581.42043
1053.00098	4474.61078
1051.1543	4779.28121
1049.30566	4766.82867
1047.45801	4729.40106
1045.6084	3815.76709
1043.75977	3529.17911
1041.90918	2787.71789
1040.05859	2259.77949
1038.20801	1769.25813
1036.35644	1355.65224
1034.50488	883.44517
1032.65234	436.37661
1030.79981	368.64075
1028.94629	87.15733
1027.0918	207.2674
1025.23731	175.53077
1023.38281	329.98691
1021.52734	804.71755
1019.6709	367.58567
1017.81445	1048.97721
1015.95801	1120.74192
1014.10059	1295.85016
1012.24219	1473.92096
1010.38379	2045.57631
1008.52539	2155.30438
1006.66602	2831.68779
1004.80566	3133.39711
1002.94531	4042.43134
1001.08398	4146.43081
999.22266	3749.04465
997.36035	3463.22939
995.49805	2700.77463
993.63477	2429.43811
991.77148	1873.21918
989.90723	1803.02243
988.04297	1728.09602
986.17773	1788.50904
984.3125	1529.53465
982.44629	1932.14517
980.5791	1927.66954
978.71191	2095.50427
976.84473	2187.47716
974.97656	2573.72044
973.10742	2672.49478
971.23828	2790.46507
969.36914	3071.0016
967.49902	3263.54182
965.62793	3674.36527
963.75684	3523.42457
961.88477	4049.4223
960.0127	4021.28944
958.13965	3734.25143
956.2666	3872.57639
954.39355	3911.78845
952.51855	3865.96035
950.64355	3786.14583
948.76855	3700.19126
946.89258	3659.18895
945.0166	3792.03047
943.13965	3951.07084
941.2627	3984.12817
939.38477	4138.89147
937.50586	4078.75366
935.62695	3954.8791
933.74707	4175.92812
931.86719	3829.22897
929.9873	3687.48126
928.10645	3191.41619
926.22461	3585.12317
924.34277	3341.22737
922.45996	2637.87274
920.57715	3028.87146
918.69336	2963.98674
916.80957	2574.7757
914.9248	2291.15942
913.03906	2103.80761
911.1543	1955.31035
909.26758	1945.43103
907.38086	1553.45361
905.49414	1438.46969
903.60645	1230.39196
901.71777	1094.36031
899.8291	1005.38368
897.93945	807.69576
896.0498	629.43348
894.15918	478.8995
892.26855	604.67222
890.37695	178.0006
888.48535	810.87587
886.59277	664.06967
884.7002	478.69021
882.80664	883.81241
880.91211	840.08618
879.01758	1240.3156
877.12305	951.19953
875.22754	1112.40315
873.33105	999.91374
871.43457	752.5808
869.53711	434.79566
867.63965	663.22457
865.74121	543.06551
863.84277	504.70331
861.94336	640.71437
860.04395	200.28575
858.14355	632.61932
856.24219	367.81523
854.34082	488.01122
852.43945	184.48845
850.53711	125.8051
848.63379	352.04403
846.73047	80.8378
844.82617	210.71254
842.92188	-10.18707
841.0166	9.85079
839.11133	155.50058
837.20508	288.7686
835.29883	266.29644
833.3916	555.72682
831.4834	586.35749
829.5752	1019.98722
827.66699	853.75592
825.75684	1415.1779
823.84766	1546.64191
821.9375	1268.62925
820.02637	847.59654
818.11426	928.66693
816.20313	801.9783
814.29004	753.67577
812.37695	795.53227
810.46387	736.41733
808.5498	1548.03659
806.63477	1230.72881
804.71973	913.77393
802.80371	1126.22578
800.8877	1122.54139
798.9707	1142.78261
797.05371	1009.85513
795.13574	1118.88739
793.21777	989.53588
791.29883	1069.414
789.37891	678.91316
787.45898	659.15211
785.53906	922.81374
783.61719	1244.03345
781.69629	732.90098
779.77344	949.25029
777.85156	1187.85336
775.92773	940.85053
774.00391	1009.68423
772.08008	1072.88037
770.15527	1078.02158
768.22949	1041.45409
766.30371	919.81658
764.37793	928.31954
762.4502	990.10936
760.52344	1019.26205
758.59473	708.83341
756.66602	696.49099
754.7373	567.69535
752.80762	368.59135
750.87695	440.23858
748.94629	601.11278
747.01563	238.9562
745.08301	240.27016
743.15137	330.73363
741.21777	607.63031
739.28418	242.20089
737.35059	259.54472
735.41602	402.82407
733.48047	358.77266
731.54492	71.7207
729.60938	367.41298
727.67188	168.30808
725.73535	155.09644
723.79688	199.1765
721.8584	100.97523
719.91992	489.19464
717.98047	621.82897
716.04004	801.50547
714.09961	747.24654
712.1582	830.59278
710.2168	1056.70665
708.27441	912.61255
706.33203	1112.8566
704.38867	1385.60257
702.44434	1571.25974
700.5	1954.56052
698.55566	1964.96142
696.61035	2279.34608
694.66406	2681.72791
692.7168	3092.31576
690.77051	3680.84439
688.82227	4779.721
686.87402	5787.73564
684.92578	6820.1162
682.97559	8964.75877
681.02637	10535.41955
679.0752	12352.09555
677.125	13997.57332
675.17285	14727.81944
673.2207	14122.40942
671.26855	13611.79698
669.31543	12361.36675
667.36133	11212.02781
665.40723	10130.5743
663.45215	10035.17097
661.49707	9073.52325
659.54102	8354.5752
657.58398	7401.84287
655.62695	6329.25355
653.66895	5869.69792
651.71094	5173.31325
649.75195	4935.33829
647.79297	5110.80062
645.83301	4730.81776
643.87305	4893.5339
641.91211	5633.88915
639.9502	6299.70058
637.98828	7297.35957
636.02539	8315.06471
634.0625	8601.46932
632.09863	9785.046
630.13379	10426.25079
628.16895	10459.01412
626.20313	10373.68988
624.2373	9719.52617
622.27148	9031.7571
620.30371	8378.49279
618.33594	7649.09552
616.36816	6922.37117
614.39941	6627.2294
612.42969	6228.40196
610.45996	5619.98645
608.48926	5051.37303
606.51855	4630.4203
604.54688	3795.38356
602.57422	3766.0201
600.60156	2774.77246
598.62793	2420.61456
596.6543	2200.42601
594.67969	1774.75283
592.70508	1645.7374
590.72949	941.67339
588.75293	600.91791
586.77637	834.11643
584.79883	618.70717
582.82129	349.11707
580.84277	105.91736
578.86426	437.84683
576.88477	53.64136
574.9043	340.45319
572.92383	390.3109
570.94238	841.29314
568.96094	1403.08372
566.97852	1894.57363
564.99512	1979.55727
563.01172	2278.31984
561.02734	2037.81998
559.04297	2328.3294
557.05762	2109.43087
555.07227	1968.62677
553.08594	1411.91077
551.09863	736.44358
549.11133	240.88792