#Wave		#Intensity
1678.89356	0
1677.90527	91.56992
1676.91699	-256.21206
1675.92871	230.15033
1674.93945	477.26826
1673.95019	202.03865
1672.96094	186.21786
1671.97168	116.24838
1670.98242	-389.10039
1669.99219	-88.33468
1669.00195	-4.29787
1668.01172	-91.68591
1667.02148	301.86824
1666.03027	3.46781
1665.03906	-326.8706
1664.04883	45.67703
1663.05664	-179.36373
1662.06543	-86.22113
1661.07324	-112.11926
1660.08203	-42.33799
1659.08984	-475.64583
1658.09766	-418.13872
1657.10449	-408.30951
1656.11231	626.07231
1655.11914	134.05921
1654.12598	-153.55579
1653.13184	-237.00579
1652.13867	315.8832
1651.14453	275.66768
1650.15039	-22.89401
1649.15625	25.12813
1648.16211	201.62859
1647.16699	885.71362
1646.17285	136.11718
1645.17773	-653.80548
1644.18164	260.91459
1643.18652	-276.12313
1642.19043	-197.23493
1641.19531	-241.61763
1640.19922	29.42907
1639.20215	-265.29143
1638.20606	246.34546
1637.20898	-178.68004
1636.21191	340.89511
1635.21484	369.88578
1634.21777	-91.43893
1633.21973	-241.58638
1632.22266	-88.2354
1631.22461	143.82158
1630.22656	259.95219
1629.22754	-199.93971
1628.22949	268.04795
1627.23047	141.36439
1626.23144	-265.58033
1625.23144	105.13947
1624.23242	-32.47739
1623.23242	659.41133
1622.23242	13.7209
1621.23242	406.51658
1620.23242	481.74134
1619.23242	340.36062
1618.23144	702.8293
1617.23047	-76.77704
1616.22949	326.49359
1615.22754	524.3325
1614.22656	188.71963
1613.22461	505.5765
1612.22266	851.98834
1611.2207	471.3773
1610.21777	1111.69726
1609.21484	1278.47695
1608.21289	823.04541
1607.20898	1149.57537
1606.20606	1256.14999
1605.20313	759.50689
1604.19922	601.50459
1603.19531	1049.81878
1602.19141	1025.32971
1601.18652	1078.71905
1600.18262	533.26425
1599.17773	972.92309
1598.17285	1096.26907
1597.16699	583.90271
1596.16211	1085.77456
1595.15625	1260.33285
1594.15039	1107.80178
1593.14453	216.26652
1592.13867	746.57049
1591.13184	712.29974
1590.125	829.94235
1589.11816	939.89535
1588.11133	1086.66171
1587.10449	636.14105
1586.09668	1182.82998
1585.08887	2110.84402
1584.08106	1700.47061
1583.07324	1556.81118
1582.06445	827.71048
1581.05664	1317.1492
1580.04785	1524.74942
1579.03906	1632.10196
1578.0293	1406.08865
1577.02051	1550.02639
1576.01074	887.18496
1575.00098	1311.85809
1573.99023	996.54443
1572.98047	1272.75848
1571.96973	173.57983
1570.95898	678.59433
1569.94824	665.94522
1568.9375	575.55323
1567.92578	710.30375
1566.91504	656.54573
1565.90332	451.2758
1564.89063	648.2272
1563.87891	387.39442
1562.86621	665.15837
1561.85352	27.89808
1560.84082	-325.26001
1559.82813	693.20129
1558.81445	-14.09856
1557.80176	-20.93865
1556.78809	27.36368
1555.77441	-112.33507
1554.75977	337.21331
1553.74609	-34.67566
1552.73144	212.00238
1551.7168	-60.49913
1550.70117	-406.59031
1549.68652	-123.41413
1548.6709	637.76194
1547.65527	162.83419
1546.63965	603.6287
1545.62402	-319.67881
1544.60742	14.3333
1543.59082	344.50288
1542.57422	-141.098
1541.55762	-244.51434
1540.54004	474.66954
1539.52344	-10.69476
1538.50586	223.5798
1537.48828	-202.83701
1536.46973	-456.64672
1535.45215	-145.3632
1534.43359	-186.31506
1533.41504	231.12821
1532.39648	-194.77607
1531.37695	-294.2841
1530.3584	-192.12917
1529.33887	-42.36814
1528.31934	155.00206
1527.29883	183.84829
1526.2793	62.65144
1525.25879	468.68304
1524.23828	204.84607
1523.21777	-388.12607
1522.19629	402.07701
1521.17578	43.56583
1520.1543	-281.8191
1519.13281	-354.7068
1518.11035	-83.88835
1517.08887	-302.75621
1516.06641	-104.93023
1515.04394	16.21959
1514.02148	27.86159
1512.99805	-292.68172
1511.97559	-350.08957
1510.95215	472.25538
1509.92871	-292.98263
1508.9043	357.77304
1507.88086	-63.95904
1506.85644	123.61514
1505.83203	74.27217
1504.80762	10.5254
1503.78223	-45.77854
1502.75781	3.79688
1501.73242	140.9199
1500.70703	128.82887
1499.68066	510.15199
1498.65527	-160.62118
1497.62891	537.62403
1496.60254	-398.19153
1495.57617	125.53274
1494.54883	-89.22089
1493.52246	183.65793
1492.49512	-26.99978
1491.46777	-357.33111
1490.43945	272.14086
1489.41211	196.63789
1488.38379	-198.34565
1487.35547	562.05992
1486.32715	-264.55338
1485.29785	681.0987
1484.26953	853.43075
1483.24023	271.04241
1482.21094	-118.57701
1481.18066	921.39245
1480.15137	263.85563
1479.12109	846.8764
1478.09082	704.8376
1477.06055	563.08439
1476.0293	1084.72271
1474.99805	1055.69885
1473.96777	921.88977
1472.93555	983.88672
1471.9043	814.39779
1470.87207	1122.99972
1469.84082	1109.63714
1468.80859	904.73526
1467.77539	1040.18038
1466.74316	676.72221
1465.70996	1127.22653
1464.67676	1209.03137
1463.64356	839.25051
1462.61035	1069.72454
1461.57617	1347.29614
1460.54199	1552.75521
1459.50781	1426.13311
1458.47363	1397.2919
1457.43848	2076.21365
1456.40332	2235.39181
1455.36816	2506.60818
1454.33301	1634.39206
1453.29785	2317.27877
1452.26172	1756.06765
1451.22559	2172.33706
1450.18945	1327.14941
1449.15332	2028.51632
1448.11621	1684.99984
1447.0791	2559.37991
1446.04199	2119.15847
1445.00488	2028.626
1443.96777	1254.42907
1442.92969	1193.40185
1441.8916	1819.90316
1440.85352	2208.95999
1439.81543	2659.24179
1438.77637	1958.87271
1437.73731	1967.3005
1436.69824	2195.22543
1435.65918	2107.06509
1434.61914	2162.89358
1433.5791	2545.81967
1432.54004	2490.69851
1431.49902	1653.09591
1430.45898	2108.41531
1429.41797	2029.01858
1428.37695	2495.31167
1427.33594	2721.28195
1426.29492	2520.58865
1425.25293	2284.35476
1424.21094	2661.51834
1423.16894	1787.81887
1422.12695	2960.96994
1421.08496	2320.93759
1420.04199	3042.59945
1418.99902	2492.82803
1417.95606	2509.25112
1416.91211	2919.67306
1415.86914	2725.30239
1414.82519	2967.78988
1413.78125	3042.26474
1412.73731	2952.41104
1411.69238	3120.28634
1410.64746	3456.35043
1409.60254	3249.19223
1408.55762	2792.1954
1407.51172	3189.53097
1406.4668	2904.6531
1405.4209	3691.51205
1404.375	3421.37472
1403.32813	3651.33761
1402.28223	3346.07553
1401.23535	3836.87399
1400.18848	4406.165
1399.14063	3923.25143
1398.09375	4189.6047
1397.0459	4138.75631
1395.99805	4259.23751
1394.95019	3692.0914
1393.90137	4137.25595
1392.85352	3941.25582
1391.80469	4696.42709
1390.75586	4831.93466
1389.70606	4778.9216
1388.65723	4754.61068
1387.60742	4755.41525
1386.55762	4713.72836
1385.50684	4345.04733
1384.45703	4929.71188
1383.40625	4611.30978
1382.35547	4346.55062
1381.30469	4458.78842
1380.25293	3810.85397
1379.20117	4332.03695
1378.14941	4412.82345
1377.09766	4564.76547
1376.0459	4269.55221
1374.99316	4979.04489
1373.94043	4261.99106
1372.88769	4226.56271
1371.83496	4123.93649
1370.78125	3989.6279
1369.72754	4834.03415
1368.67383	4391.61471
1367.62012	3418.00521
1366.56641	4195.19528
1365.51172	3898.9581
1364.45703	3872.15658
1363.40234	4139.41623
1362.34668	3344.76999
1361.29199	4061.81906
1360.23633	3303.25229
1359.17969	3341.12875
1358.12402	3541.83834
1357.06738	3434.99411
1356.01172	3642.98361
1354.95508	3303.20504
1353.89746	3727.01547
1352.84082	3928.22055
1351.7832	3578.4664
1350.72559	3476.21994
1349.66797	3349.45749
1348.60938	3494.69821
1347.55078	3534.1567
1346.49219	3302.0577
1345.43359	3144.27865
1344.375	3512.21188
1343.31543	2787.04776
1342.25586	3289.14804
1341.19629	3015.77047
1340.13672	2725.0292
1339.07617	2216.12381
1338.01563	2165.47445
1336.95508	2551.63418
1335.89453	2818.05447
1334.83301	2148.18563
1333.77148	2516.89651
1332.70996	1682.27743
1331.64844	2093.39279
1330.58594	1702.60965
1329.52441	2152.46096
1328.46191	1702.31283
1327.39941	1305.19955
1326.33594	1892.25381
1325.27246	1193.39068
1324.20898	1081.49301
1323.14551	1222.58657
1322.08203	1086.3844
1321.01758	1550.55905
1319.95313	1042.58895
1318.88867	1215.58407
1317.82422	750.21045
1316.75879	1228.5082
1315.69336	735.49838
1314.62793	821.18341
1313.5625	843.85434
1312.49609	800.03985
1311.43066	784.35742
1310.36426	768.78384
1309.29688	175.55984
1308.23047	16.76923
1307.16309	491.65692
1306.0957	850.94253
1305.02832	83.63611
1303.95996	37.29604
1302.89258	57.48182
1301.82422	493.80246
1300.75586	538.51814
1299.68652	352.65446
1298.61816	83.07494
1297.54883	208.4243
1296.47949	-148.16063
1295.40918	-22.66185
1294.33984	186.61566
1293.26953	-511.54819
1292.19922	95.66685
1291.12793	-145.03753
1290.05762	-287.92574
1288.98633	723.52868
1287.91504	-179.37198
1286.84375	-301.06507
1285.77148	211.5771
1284.69922	-153.9167
1283.62695	-393.80229
1282.55469	101.25827
1281.48144	164.42799
1280.40918	-36.94715
1279.33594	-46.77354
1278.26172	-195.72101
1277.18848	754.66751
1276.11426	911.73199
1275.04004	644.55722
1273.96582	985.8854
1272.8916	802.28308
1271.81641	479.81164
1270.74121	-297.59236
1269.66602	439.71548
1268.58984	843.37103
1267.51465	559.45204
1266.43848	532.53691
1265.36231	647.93098
1264.28516	693.91082
1263.20898	-148.11794
1262.13184	106.11074
1261.05469	429.57986
1259.97656	693.99176
1258.89941	303.27343
1257.82129	539.88429
1256.74316	502.72523
1255.66504	-337.91674
1254.58594	515.01216
1253.50684	197.47532
1252.42773	347.30069
1251.34863	-278.04711
1250.26856	446.08137
1249.18945	540.373
1248.10938	319.93926
1247.02832	113.43029
1245.94824	311.3748
1244.86719	533.41151
1243.78613	679.31251
1242.70508	448.61267
1241.62305	407.93579
1240.54102	-154.10228
1239.45898	202.26186
1238.37695	85.63537
1237.29492	-193.15002
1236.21191	469.89259
1235.12891	725.63302
1234.0459	-142.84884
1232.96191	-142.26557
1231.87891	485.51588
1230.79492	492.74067
1229.70996	534.36732
1228.62598	62.71077
1227.54102	317.78933
1226.45606	596.78573
1225.37109	455.68004
1224.28613	404.03646
1223.20019	538.13412
1222.11426	458.84739
1221.02832	338.25207
1219.94238	28.5314
1218.85547	402.91742
1217.76856	-511.67229
1216.68164	-85.96271
1215.59375	-206.69862
1214.50684	-14.95595
1213.41894	-39.69869
1212.33106	295.92083
1211.24219	92.47975
1210.1543	-49.22024
1209.06543	189.83081
1207.97656	-37.76322
1206.88672	-508.81035
1205.79785	-551.24637
1204.70801	-0.81988
1203.61816	-57.26845
1202.52734	-0.74225
1201.43652	-26.56454
1200.34668	-353.84723
1199.25488	-602.34758
1198.16406	-210.7991
1197.07227	-158.3327
1195.98144	-68.39394
1194.88867	141.11015
1193.79688	-63.41192
1192.7041	210.68538
1191.61231	-185.46051
1190.51856	115.6131
1189.42578	-113.19358
1188.33203	-174.65783
1187.23828	77.96317
1186.14453	-263.79365
1185.05078	920.36065
1183.95606	342.77789
1182.86133	-132.34546
1181.7666	170.387
1180.67188	-28.53846
1179.57617	215.74897
1178.48047	391.57536
1177.38477	-155.40702
1176.28906	-269.55559
1175.19238	580.3105
1174.0957	332.87152
1172.99902	276.06884
1171.90234	900.01388
1170.80469	243.68975
1169.70703	186.40618
1168.60938	397.73951
1167.51172	438.72117
1166.41309	-27.20738
1165.31445	-292.51688
1164.21582	132.13085
1163.11719	2.45477
1162.01758	154.64972
1160.91797	296.39027
1159.81836	-27.40527
1158.71777	120.70747
1157.61816	326.2548
1156.51758	-378.04499
1155.41699	407.33333
1154.31543	89.64796
1153.21387	-44.95631
1152.11231	840.91165
1151.01074	736.28381
1149.90918	-242.94878
1148.80664	262.21755
1147.7041	753.38952
1146.60156	573.49568
1145.49805	576.3242
1144.39551	687.26167
1143.29199	577.92271
1142.1875	884.63385
1141.08398	1268.79461
1139.97949	996.36819
1138.875	642.67805
1137.77051	911.00067
1136.66504	158.17958
1135.56055	297.60877
1134.45508	480.67544
1133.34863	437.10865
1132.24316	-174.02053
1131.13672	-234.77323
1130.03027	821.57434
1128.92383	493.54313
1127.81641	543.31527
1126.70898	171.17389
1125.60156	493.69282
1124.49414	219.03176
1123.38574	712.83313
1122.27832	437.76399
1121.16894	765.703
1120.06055	-28.50832
1118.95117	440.35974
1117.84277	686.54426
1116.73242	1026.63085
1115.62305	1117.26239
1114.51269	682.69053
1113.40332	1025.1856
1112.29199	455.80743
1111.18164	643.02961
1110.07031	648.3838
1108.95898	1234.95215
1107.84766	473.5357
1106.73633	424.44348
1105.62402	559.8584
1104.51172	674.81878
1103.39941	1131.92675
1102.28613	1175.73382
1101.17383	997.80639
1100.06055	1460.5108
1098.94629	1057.37243
1097.83301	976.11737
1096.71875	592.91539
1095.60449	1040.91821
1094.49023	1022.67358
1093.375	582.04464
1092.25977	660.57629
1091.14453	1314.83612
1090.0293	887.13186
1088.91309	700.38667
1087.79785	1022.18588
1086.68164	1099.3565
1085.56445	1517.45028
1084.44824	1520.43856
1083.33106	1687.02444
1082.21289	1559.13461
1081.0957	1925.71286
1079.97754	1393.08999
1078.85938	1779.12448
1077.74121	1236.32223
1076.62305	1311.25531
1075.50391	1178.96225
1074.38477	1096.582
1073.26563	456.79817
1072.14551	0.56116
1071.02637	-422.3165
1069.90625	-431.74495
1068.78516	262.00618
1067.66504	78.70564
1066.54394	-238.00082
1065.42285	8.23448
1064.30078	-292.07054
1063.17969	86.87399
1062.05762	-110.48845
1060.93555	-1.74486
1059.81348	419.55278
1058.69043	271.5879
1057.56738	319.73899
1056.44434	191.45811
1055.32031	963.98709
1054.19727	260.26496
1053.07324	121.58692
1051.94824	-33.81593
1050.82422	-378.62452
1049.69922	402.27389
1048.57422	346.02884
1047.44922	269.74517
1046.32324	123.64835
1045.19727	-271.35957
1044.07129	152.94741
1042.94531	-129.41939
1041.81836	-494.68789
1040.69238	260.4206
1039.56445	-393.35116
1038.4375	-324.68995
1037.30957	-176.69982
1036.18164	342.00097
1035.05371	-10.39638
1033.92578	123.82876
1032.79688	621.89343
1031.66797	-514.7811
1030.53906	244.30521
1029.40918	-174.35921
1028.2793	-83.75897
1027.14941	-218.06388
1026.01953	-94.62735
1024.88867	-367.81845
1023.75879	-287.5021
1022.62695	83.28433
1021.49609	-256.01309
1020.36426	259.70504
1019.23242	35.88845
1018.10059	-227.47425
1016.96875	640.66417
1015.83594	373.8681
1014.70313	720.41369
1013.57031	166.85805
1012.43652	32.04088
1011.30273	351.94754
1010.16895	757.32455
1009.03516	-52.73968
1007.90039	826.61615
1006.7666	737.78033
1005.63086	774.00372
1004.49609	685.19084
1003.36035	741.13803
1002.22461	945.06524
1001.08887	866.1369
999.95313	1132.41235
998.81641	1329.5577
997.67969	1520.06027
996.54297	1648.08468
995.40527	1447.65094
994.26758	2084.61343
993.12988	2163.27334
991.99219	2136.92227
990.85352	2087.64492
989.71484	3088.16635
988.57617	3242.1456
987.4375	3028.8779
986.29785	3605.78427
985.1582	4211.99704
984.01855	4618.12716
982.87793	4457.41916
981.7373	4663.67172
980.59668	4843.73178
979.45605	5200.57174
978.31445	4827.48996
977.17285	4945.49411
976.03125	4955.60189
974.88965	5544.69467
973.74707	5087.28915
972.60449	4823.08993
971.46191	5202.97995
970.31836	4844.35397
969.17578	5351.72824
968.03223	4644.04538
966.8877	5073.11093
965.74414	5283.41891
964.59961	5856.03219
963.45508	5886.88986
962.30957	5581.86947
961.16406	6236.00387
960.01855	5644.43148
958.87305	6314.88058
957.72754	5678.28219
956.58105	5957.73922
955.43457	6729.14865
954.28809	6767.58761
953.14063	6763.8508
951.99316	6818.90475
950.8457	6581.21334
949.69727	7141.00558
948.5498	7134.71261
947.40137	7665.24972
946.25293	7639.72775
945.10352	7331.59054
943.9541	7774.57467
942.80469	7902.38815
941.65527	8196.02926
940.50488	8522.22506
939.35449	8673.15158
938.2041	9116.39938
937.05371	8297.16867
935.90234	7725.15084
934.75098	7471.53659
933.59961	6991.25314
932.44727	6180.69503
931.29492	5370.75216
930.14258	4444.75961
928.99023	3875.86447
927.83691	3038.60116
926.68359	2483.74344
925.53027	1531.13009
924.37598	996.79684
923.22266	1404.76846
922.06836	602.66763
920.91309	516.10342
919.75879	99.95825
918.60352	350.33236
917.44824	497.40441
916.29199	-318.4239
915.13672	-86.73134
913.98047	-316.83235
912.82324	244.68227
911.66699	402.59726
910.50977	-494.8812
909.35254	499.52281
908.19531	-90.51125
907.03711	345.79821
905.87891	604.78076
904.7207	12.70145
903.56152	381.768
902.40332	77.36602
901.24414	-126.75652
900.08398	-411.05114
898.9248	-244.08111
897.76465	132.34972
896.60449	228.80842
895.44336	35.83539
894.2832	42.69514
893.12207	-175.36802
891.95996	-171.17944
890.79883	-147.44508
889.63672	387.61552
888.47461	-54.28065
887.31152	908.31955
886.14941	457.35257
884.98633	777.57858
883.82324	937.35961
882.65918	1004.2117
881.49512	994.24444
880.33105	1404.81012
879.16699	1436.90374
878.00195	1074.768
876.83691	1325.39004
875.67188	1386.99304
874.50684	657.2353
873.34082	386.19005
872.1748	826.56579
871.00781	1282.95343
869.8418	734.01852
868.6748	710.4723
867.50781	1471.15673
866.33984	1412.63559
865.17285	484.3072
864.00488	669.44391
862.83594	336.73852
861.66797	129.01009
860.49902	519.1194
859.33008	429.97505
858.16016	379.36364
856.99121	9.58502
855.82129	134.97327
854.65039	218.95089
853.48047	-118.20278
852.30957	125.55766
851.13867	-606.6615
849.9668	35.9322
848.7959	-281.25816
847.62402	-5.37032
846.45117	9.19913
845.2793	-87.65535
844.10645	420.77253
842.93359	476.87092
841.75977	243.32482
840.58691	735.60989
839.41309	-89.61436
838.23926	564.86985
837.06445	48.67902
835.88965	658.38804
834.71484	1105.71264
833.54004	1072.93869
832.36426	388.81926
831.18848	476.97584
830.0127	587.31918
828.83594	532.50647
827.65918	833.23513
826.48242	1187.75772
825.30566	587.0296
824.12793	665.40515
822.9502	946.6676
821.77246	856.78414
820.59375	868.32363
819.41602	417.09069
818.2373	1223.85943
817.05762	1108.38974
815.87793	1521.75418
814.69824	918.4938
813.51855	904.17559
812.33887	791.65728
811.1582	701.21792
809.97754	958.64929
808.7959	890.1033
807.61523	268.14813
806.43359	518.75923
805.25098	86.50511
804.06934	712.6871
802.88672	896.19403
801.7041	927.8558
800.52051	612.03659
799.33789	712.81839
798.1543	450.45448
796.96973	1295.37091
795.78613	1010.49661
794.60156	1640.00973
793.41699	1452.47201
792.23145	1951.8995
791.04688	2441.38894
789.86035	1988.44589
788.6748	1793.72384
787.48926	1948.3619
786.30273	1608.40097
785.11523	1372.19931
783.92871	1327.76739
782.74121	1097.46566
781.55371	731.74792
780.36621	1117.40173
779.17773	644.37146
777.98926	1054.39715
776.80078	449.01294
775.6123	258.2589
774.42285	538.36236
773.2334	255.96539
772.04297	422.26773
770.85352	346.49964
769.66309	402.20166
768.47168	733.58035
767.28125	841.78021
766.08984	498.09079
764.89844	636.93481
763.70605	117.23424
762.51465	446.50393
761.32227	483.93834
760.12891	430.16529
758.93652	444.92886
757.74316	-138.54249
756.5498	523.38273
755.35547	142.78236
754.16211	606.51893
752.9668	1216.61871
751.77246	1294.57028
750.57715	681.33839
749.38281	1183.6155
748.18652	785.50521
746.99121	771.39172
745.79492	913.03927
744.59863	648.3957
743.40137	102.59338
742.20508	133.96084
741.00781	-374.76404
739.81055	-652.81072
738.6123	213.26185
737.41406	261.79384
736.21582	-572.06263
735.0166	-28.65739
733.81836	483.00061
732.61914	-130.25289
731.41895	-301.41754
730.21973	-74.37663
729.01953	-246.14457
727.81934	-415.04426
726.61816	-204.68675
725.41699	-172.01086
724.21582	-329.32007
723.01465	-834.99759
721.8125	-554.4861
720.61035	-122.15949
719.4082	104.68008
718.20508	501.93028
717.00195	-100.98434
715.79883	-207.23004
714.5957	95.96862
713.3916	615.94543
712.1875	319.7053
710.98242	798.62729
709.77832	495.87457
708.57324	1194.20285
707.36719	2601.61557
706.16211	2722.5397
704.95605	3518.44186
703.75	3505.6329
702.54297	3235.74167
701.33691	3971.76486
700.12988	4004.9216
698.92188	3558.46835
697.71484	2957.53396
696.50684	2950.49044
695.29785	2448.78604
694.08984	1418.82812
692.88086	1486.22
691.67188	500.22099
690.46289	61.34096
689.25293	941.08993
688.04297	258.53269
686.83301	619.46659
685.62207	100.98063
684.41113	588.41914
683.2002	227.68152
681.98828	234.12693
680.77637	-280.19507
679.56445	59.50578
678.35254	14.12333
677.13965	147.59574
675.92676	484.46435
674.71387	227.22657
673.5	127.33286
672.28613	418.55632
671.07227	442.2731
669.8584	257.14626
668.64355	705.85154
667.42871	278.53366
666.21289	822.97409
664.99805	12.47285
663.78223	324.00816
662.56543	1013.54358
661.34961	419.71441
660.13281	-231.72879
658.91602	-118.22738
657.69824	170.5647
656.48047	711.22976
655.2627	522.22995
654.04492	974.63037
652.82617	320.74133
651.60742	979.32693
650.38867	669.96987
649.16895	251.03063
647.94922	44.15256
646.72949	297.17778
645.50879	-183.95623
644.28809	60.97196
643.06738	125.86804
641.84668	-191.00789
640.625	-79.02907
639.40332	-94.91189
638.18164	-88.79036
636.95898	-240.97157
635.73633	-462.74363
634.51367	-79.08058
633.29004	-659.90752
632.06641	-415.63569
630.84277	-357.07387
629.61914	138.36199
628.39453	-360.35574
627.16992	169.49152
625.94531	544.1072
624.71973	422.18565
623.49414	407.48494
622.26855	460.29196
621.04199	419.1022
619.81543	436.21244
618.58887	545.05098
617.36133	794.22973
616.13477	240.21724
614.90723	258.75008
613.67871	207.57233
612.4502	609.73202
611.22168	640.95668
609.99316	128.22851
608.76367	41.23917
607.53418	221.64204
606.30469	717.78192
605.0752	-128.56635
603.84473	-70.01898
602.61426	-494.32245
601.38281	106.8495
600.15137	534.4142
598.91992	175.77819
597.68848	241.23613
596.45605	366.61433
595.22363	-121.02098
593.99121	-342.66111
592.75781	-595.46561
591.52441	-519.1516
590.29102	215.9516
589.05762	-370.39729
587.82324	-31.91153
586.58887	-164.14777
585.35352	167.73799
584.11816	542.90924
582.88281	-199.74802
581.64746	-134.21954
580.41113	651.07673
579.1748	336.77331
577.93848	-324.45922
576.70117	273.86214
575.46484	-27.84315
574.22656	20.31331
572.98926	-167.4481
571.75098	561.13546
570.5127	398.63897
569.27344	801.77047
568.03516	720.90972
566.7959	144.00548
565.55566	240.18589
564.31641	644.293
563.07617	166.13609
561.83496	22.41829
560.59473	-64.22633
559.35352	-217.68329
558.11133	331.95544
556.87012	74.02234
555.62793	-522.31438
554.38574	238.54741
553.14355	-358.94196
551.90039	-15.47522
550.65723	105.28943
549.41309	-120.16981