#Wave		#Intensity
1634.031250	6.601269
1633.034180	2.971618
1632.036133	-12.852971
1631.039063	56.490379
1630.041016	3.830798
1629.042969	-16.093384
1628.043945	4.165395
1627.045898	7.229434
1626.046875	-6.908256
1625.047852	21.579073
1624.048828	12.911857
1623.049805	81.712837
1622.049805	100.883270
1621.049805	125.239182
1620.049805	92.521706
1619.049805	99.845078
1618.048828	77.486176
1617.048828	97.622971
1616.047852	90.558357
1615.046875	115.999916
1614.044922	104.289116
1613.043945	157.382599
1612.041992	173.315094
1611.040039	209.265228
1610.038086	240.367508
1609.036133	264.134949
1608.033203	302.918518
1607.030273	257.379181
1606.027344	291.416656
1605.024414	300.728058
1604.020508	287.805145
1603.017578	356.861542
1602.013672	502.879272
1601.009766	661.325562
1600.004883	899.134033
1599.000977	1285.661255
1597.996094	1558.094971
1596.991211	1746.237671
1595.986328	1399.252075
1594.980469	1087.153687
1593.975586	770.294739
1592.969727	540.281372
1591.963867	394.579742
1590.957031	372.730865
1589.951172	291.555664
1588.944336	284.672668
1587.937500	290.200439
1586.930664	347.691803
1585.923828	387.889587
1584.916016	561.575256
1583.908203	846.421021
1582.900391	1074.350342
1581.892578	1265.157715
1580.884766	1268.218506
1579.875977	1115.747437
1578.867188	906.582397
1577.858398	774.031677
1576.849609	772.330627
1575.839844	647.293762
1574.830078	588.915955
1573.820313	449.194977
1572.810547	284.885956
1571.800781	221.714600
1570.790039	202.934921
1569.779297	142.280014
1568.768555	86.579117
1567.757813	85.085052
1566.746094	100.828156
1565.735352	64.863182
1564.723633	73.214645
1563.711914	81.558250
1562.699219	75.132263
1561.687500	53.943085
1560.674805	57.348839
1559.662109	45.992630
1558.649414	29.715729
1557.635742	33.098267
1556.622070	9.439926
1555.609375	-11.763982
1554.594727	38.258808
1553.581055	9.667331
1552.567383	5.625809
1551.552734	-13.154286
1550.538086	-24.578403
1549.523438	-1.662582
1548.507813	-8.206995
1547.492188	9.761115
1546.477539	17.897163
1545.460938	11.306402
1544.445313	-7.553513
1543.429688	10.334726
1542.413086	-13.449521
1541.396484	9.298207
1540.379883	-2.265428
1539.362305	40.023682
1538.345703	23.528027
1537.328125	14.364535
1536.310547	19.868376
1535.292969	13.120679
1534.274414	11.250383
1533.255859	-5.308490
1532.237305	19.683149
1531.218750	17.759825
1530.200195	20.707279
1529.180664	6.533963
1528.161133	26.547209
1527.141602	41.650352
1526.122070	27.429815
1525.102539	3.433625
1524.082031	-23.009523
1523.061523	4.224767
1522.041016	4.595197
1521.019531	-7.246023
1519.999023	-19.098757
1518.977539	20.237494
1517.956055	27.853121
1516.934570	20.827744
1515.912109	-5.701896
1514.890625	31.100773
1513.868164	21.598852
1512.845703	4.781442
1511.822266	39.081005
1510.799805	39.276432
1509.776367	68.659554
1508.752930	49.358212
1507.729492	93.294624
1506.705078	129.904007
1505.680664	159.191132
1504.657227	159.282913
1503.631836	195.818268
1502.607422	169.150314
1501.582031	164.346298
1500.557617	120.671989
1499.532227	72.148796
1498.505859	81.902588
1497.480469	11.541843
1496.454102	38.271431
1495.427734	69.832550
1494.401367	48.004818
1493.375000	45.579025
1492.347656	60.118484
1491.321289	40.704609
1490.292969	18.867128
1489.265625	43.071163
1488.238281	35.762897
1487.209961	55.093948
1486.181641	-5.503877
1485.153320	35.604008
1484.125000	28.276030
1483.095703	35.465466
1482.066406	28.128519
1481.037109	25.627174
1480.007813	3.773151
1478.978516	10.939716
1477.948242	-1.241836
1476.917969	-8.588788
1475.887695	8.228015
1474.856445	51.609337
1473.826172	41.828117
1472.794922	19.972555
1471.763672	43.997356
1470.732422	51.111290
1469.700195	29.258095
1468.667969	2.585661
1467.636719	26.582470
1466.603516	14.388339
1465.571289	-0.213979
1464.538086	-14.812096
1463.505859	4.339253
1462.471680	1.792225
1461.438477	6.473022
1460.405273	-8.119831
1459.371094	-3.441180
1458.336914	32.535900
1457.302734	15.536932
1456.267578	-20.709528
1455.233398	12.840472
1454.198242	36.752907
1453.163086	-11.501768
1452.126953	-4.427500
1451.091797	2.644054
1450.055664	-7.113091
1449.019531	-0.043384
1447.983398	14.231833
1446.946289	2.077736
1445.910156	35.560955
1444.873047	9.002215
1443.835938	4.061321
1442.797852	8.723862
1441.760742	18.184792
1440.722656	3.651822
1439.684570	-13.272341
1438.646484	-8.605395
1437.607422	22.433929
1436.569336	-6.464659
1435.530273	-8.987706
1434.490234	45.996304
1433.451172	19.511000
1432.411133	-16.541574
1431.372070	-2.292766
1430.332031	-4.806395
1429.291016	7.043409
1428.250977	11.711008
1427.209961	18.770618
1426.168945	-5.266319
1425.127930	-10.159918
1424.085938	35.159416
1423.044922	37.433804
1422.002930	51.658260
1420.960938	46.763214
1419.917969	49.038410
1418.875977	32.207390
1417.833008	53.590721
1416.790039	39.156319
1415.747070	17.569084
1414.703125	48.491611
1413.659180	10.213783
1412.615234	-4.193227
1411.571289	10.024791
1410.527344	36.159451
1409.482422	9.841166
1408.437500	2.601454
1407.392578	35.872772
1406.347656	4.810456
1405.301758	7.106658
1404.256836	11.784153
1403.210938	-9.727315
1402.164063	6.854470
1401.118164	35.328449
1400.071289	25.724009
1399.024414	-19.555767
1397.977539	32.689121
1396.930664	-10.194005
1395.882813	13.501639
1394.834961	41.940754
1393.787109	87.000793
1392.739258	115.412407
1391.690430	115.310623
1390.642578	81.964638
1389.593750	72.373695
1388.543945	43.798073
1387.495117	31.845985
1386.445313	27.016344
1385.395508	10.328151
1384.345703	19.733541
1383.295898	19.650202
1382.245117	-8.880043
1381.194336	-6.588651
1380.143555	-35.102592
1379.092773	9.833529
1378.041016	9.748116
1376.990234	19.133562
1375.938477	23.778797
1374.885742	-9.450570
1373.833984	11.761287
1372.781250	4.571251
1371.728516	-19.175226
1370.675781	2.020334
1369.623047	-5.167852
1368.569336	11.284179
1367.515625	-12.450411
1366.461914	18.169540
1365.408203	-10.285093
1364.353516	25.040668
1363.299805	-3.407543
1362.245117	13.010219
1361.189453	8.175402
1360.134766	41.097572
1359.079102	22.097849
1358.023438	52.638779
1356.967773	38.356087
1355.912109	24.076782
1354.855469	42.802746
1353.798828	23.809267
1352.742188	26.027449
1351.685547	42.376202
1350.627930	61.069962
1349.570313	42.076584
1348.512695	32.505112
1347.455078	67.655327
1346.396484	62.782185
1345.338867	32.028053
1344.280273	24.805679
1343.220703	22.286177
1342.162109	22.115543
1341.102539	10.187877
1340.042969	40.564751
1338.983398	21.581959
1337.923828	-16.189554
1336.863281	14.162037
1335.802734	11.622812
1334.742188	11.428491
1333.681641	18.271748
1332.620117	13.374931
1331.558594	-5.600284
1330.497070	-1.115269
1329.435547	26.814713
1328.374023	0.803310
1327.311523	31.056692
1326.249023	9.734577
1325.186523	28.249615
1324.123047	-2.441081
1323.059570	9.034201
1321.997070	11.134515
1320.932617	6.206419
1319.869141	1.276605
1318.804688	1.024690
1317.740234	-10.928638
1316.675781	-22.880816
1315.611328	-6.770022
1314.545898	-18.726145
1313.481445	-33.018333
1312.416016	8.778550
1311.349609	8.496957
1310.284180	10.547701
1309.217773	28.941488
1308.151367	0.624807
1307.084961	-13.676892
1306.017578	0.030551
1304.950195	11.394828
1303.883789	39.080967
1302.815430	8.441052
1301.748047	-8.197638
1300.679688	33.451450
1299.611328	40.115791
1298.542969	37.452267
1297.474609	44.105850
1296.405273	29.788706
1295.335938	27.118641
1294.266602	61.699734
1293.197266	54.361668
1292.126953	51.677975
1291.056641	53.645939
1289.986328	69.567810
1288.916016	111.063499
1287.845703	145.562302
1286.774414	247.461563
1285.703125	349.313538
1284.631836	341.901398
1283.559570	332.166290
1282.487305	278.300598
1281.415039	291.801025
1280.342773	293.684509
1279.270508	309.492249
1278.197266	325.290558
1277.124023	343.400055
1276.050781	440.369720
1274.976563	456.122650
1273.903320	571.570984
1272.829102	874.739929
1271.754883	1187.045288
1270.679688	1513.114990
1269.605469	1547.141113
1268.530273	1201.300415
1267.455078	864.872437
1266.378906	618.880920
1265.303711	458.637939
1264.227539	384.086700
1263.151367	348.898895
1262.075195	302.160217
1260.998047	246.190704
1259.920898	248.047760
1258.843750	268.396423
1257.766602	307.224579
1256.689453	299.823944
1255.611328	213.883652
1254.533203	215.744751
1253.455078	157.569611
1252.375977	143.282562
1251.296875	152.082733
1250.217773	135.496628
1249.138672	116.611443
1248.059570	125.413704
1246.979492	113.458511
1245.899414	73.843437
1244.819336	84.957092
1243.738281	49.976830
1242.658203	104.869408
1241.577148	102.151894
1240.496094	83.316338
1239.414063	151.984543
1238.333008	163.075516
1237.250977	135.038467
1236.168945	203.655930
1235.085938	306.751862
1234.003906	366.106110
1232.920898	485.221680
1231.837891	489.340942
1230.753906	472.774963
1229.670898	424.048584
1228.586914	377.643677
1227.502930	326.668518
1226.417969	287.200653
1225.333984	376.323486
1224.249023	474.591675
1223.164063	600.358459
1222.079102	693.952209
1220.993164	734.749146
1219.907227	637.930481
1218.821289	527.401367
1217.735352	398.586365
1216.648438	322.544403
1215.562500	230.501251
1214.475586	209.518417
1213.387695	163.355591
1212.300781	92.030067
1211.212891	64.237312
1210.125000	66.216049
1209.037109	38.450981
1207.948242	19.854099
1206.860352	19.568996
1205.771484	28.436066
1204.681641	9.869044
1203.592773	34.745296
1202.502930	9.340130
1201.413086	-4.624501
1200.323242	11.117824
1199.232422	15.439988
1198.142578	8.350046
1197.051758	10.399826
1195.959961	-24.061037
1194.869141	7.669213
1193.777344	2.892005
1192.685547	-4.157646
1191.593750	9.323805
1190.501953	38.763359
1189.409180	6.658153
1188.316406	81.671364
1187.223633	63.252766
1186.129883	72.180710
1185.036133	138.040207
1183.942383	210.707016
1182.848633	278.795898
1181.754883	258.111267
1180.660156	207.865799
1179.565430	180.395752
1178.470703	123.381157
1177.375977	130.060043
1176.280273	118.557961
1175.184570	75.251511
1174.088867	93.317955
1172.992188	59.136711
1171.895508	22.706671
1170.799805	65.770248
1169.702148	65.690269
1168.605469	20.226091
1167.507813	2.018047
1166.410156	-18.443298
1165.312500	-9.403717
1164.214844	8.709165
1163.116211	15.485940
1162.017578	1.868065
1160.918945	-16.268614
1159.819336	-0.407206
1158.719727	-13.990912
1157.621094	-13.974388
1156.520508	-13.950656
1155.420898	-4.865871
1154.320313	-11.618940
1153.219727	29.150314
1152.119141	40.502651
1151.017578	83.517677
1149.916992	153.651978
1148.815430	300.617737
1147.712891	508.543640
1146.611328	680.231995
1145.508789	693.724182
1144.406250	571.710632
1143.303711	345.893463
1142.201172	217.253494
1141.097656	163.156433
1139.994141	133.910812
1138.890625	122.732170
1137.786133	70.967842
1136.681641	80.115517
1135.577148	35.159969
1134.472656	26.293144
1133.367188	-14.110672
1132.262695	40.130562
1131.157227	-0.245951
1130.050781	47.224762
1128.945313	11.379478
1127.838867	9.319217
1126.732422	18.517435
1125.625977	27.717203
1124.518555	27.921322
1123.411133	43.872707
1122.303711	39.587391
1121.196289	24.070202
1120.087891	71.490402
1118.979492	96.426277
1117.871094	125.848564
1116.762695	132.804489
1115.653320	198.140091
1114.544922	292.633026
1113.434570	440.951416
1112.325195	777.684875
1111.214844	919.106140
1110.105469	914.687622
1108.994141	712.956299
1107.883789	614.440491
1106.772461	480.113220
1105.662109	442.202087
1104.549805	668.661072
1103.438477	847.986633
1102.326172	908.555420
1101.213867	689.259094
1100.101563	445.444336
1098.989258	309.152985
1097.875977	226.619431
1096.762695	153.072678
1095.649414	130.994354
1094.535156	99.985970
1093.421875	89.110291
1092.307617	84.946060
1091.192383	107.596214
1090.078125	168.210190
1088.962891	239.964630
1087.847656	365.272156
1086.732422	577.578674
1085.616211	992.871338
1084.500000	1374.509888
1083.383789	1564.140991
1082.267578	1229.603882
1081.150391	794.885559
1080.034180	523.090759
1078.916992	400.737671
1077.798828	224.965622
1076.681641	205.206024
1075.563477	172.092957
1074.445313	165.713913
1073.326172	157.111588
1072.208008	126.256302
1071.088867	106.540070
1069.968750	120.201042
1068.849609	76.028336
1067.729492	67.452026
1066.609375	81.108994
1065.489258	99.203392
1064.369141	95.067307
1063.248047	82.045395
1062.126953	84.574791
1061.005859	113.747475
1059.883789	169.545410
1058.761719	305.218903
1057.639648	538.465515
1056.517578	496.505829
1055.394531	310.391144
1054.272461	210.840988
1053.149414	157.890549
1052.025391	78.363037
1050.902344	69.780075
1049.778320	27.965197
1048.654297	6.100526
1047.529297	15.245033
1046.405273	57.590782
1045.280273	26.868473
1044.154297	24.924740
1043.029297	14.127255
1041.903320	12.178181
1040.777344	3.590846
1039.651367	-31.528969
1038.525391	10.728028
1037.398438	33.071270
1036.271484	4.581812
1035.143555	9.234220
1034.016602	-3.788765
1032.888672	7.475947
1031.760742	-14.381680
1030.632813	21.144648
1029.503906	1.488502
1028.375000	21.541540
1027.246094	15.114226
1026.117188	-11.160691
1024.987305	28.702003
1023.857422	0.219098
1022.727539	33.437386
1021.596680	11.561651
1020.466797	11.712606
1019.335938	7.452842
1018.204102	-1.214732
1017.073242	29.729866
1015.941406	7.844361
1014.809570	-16.238415
1013.677734	5.868767
1012.544922	19.162893
1011.412109	-18.118717
1010.279297	-9.236341
1009.146484	-9.155250
1008.012695	-0.294696
1006.878906	-4.624191
1005.745117	-11.155606
1004.611328	-4.520225
1003.476563	17.467703
1002.341797	-2.254680
1001.207031	-8.813472
1000.071289	8.748775
998.935547	15.330512
997.799805	21.900770
996.664063	8.733348
995.527344	2.137316
994.390625	15.252776
993.253906	10.831350
992.117188	21.731718
990.979492	17.293484
989.841797	1.904731
988.704102	-4.732603
987.566406	3.938708
986.427734	-2.713580
985.289063	-26.865582
984.150391	8.013469
983.010742	-3.033030
981.871094	14.324903
980.731445	-12.028673
979.591797	9.674247
978.451172	18.255949
977.310547	-8.106683
976.169922	-1.725039
975.029297	-4.083922
973.887695	0.094625
972.746094	-13.187104
971.604492	-4.664239
970.461914	19.107367
969.320313	-13.812580
968.177734	9.933090
967.034180	20.587023
965.891602	0.733152
964.748047	-14.764723
963.604492	-8.491914
962.459961	-10.937146
961.316406	-6.860718
960.171875	1.556851
959.026367	3.436757
957.881836	3.133377
956.736328	7.170340
955.590820	-6.191636
954.445313	30.427378
953.298828	6.187326
952.152344	10.188848
951.005859	9.837777
949.859375	-7.889621
948.711914	4.772577
947.564453	-15.130250
946.416992	-0.316831
945.269531	5.806271
944.121094	27.099754
942.972656	13.686718
941.824219	39.290413
940.674805	21.533144
939.525391	79.609138
938.375977	100.828094
937.226563	76.553391
936.076172	37.127964
934.925781	90.792725
933.775391	57.863060
932.624023	3.306857
931.473633	9.337458
930.322266	6.709299
929.169922	-2.409374
928.018555	-11.528414
926.866211	-14.165158
925.713867	13.442716
924.560547	-2.168562
923.408203	10.297851
922.254883	24.912958
921.100586	-5.812966
919.947266	-12.789370
918.792969	10.439183
917.638672	16.396973
916.484375	9.409334
915.329102	17.513729
914.173828	12.678064
913.018555	48.787666
911.863281	52.559650
910.707031	80.021431
909.550781	109.621628
908.394531	72.461899
907.237305	35.317154
906.080078	0.340030
904.922852	14.862778
903.765625	5.716118
902.607422	-14.180477
901.449219	8.931599
900.291016	-15.257281
899.132813	-2.902249
897.973633	-9.890457
896.814453	-6.135584
895.655273	6.207500
894.495117	-13.660542
893.334961	0.825064
892.174805	-16.885586
891.014648	16.904705
889.853516	67.839607
888.692383	43.694477
887.531250	45.289803
886.369141	51.172401
885.207031	59.196857
884.044922	15.799748
882.882813	-12.581137
881.719727	27.580450
880.556641	29.187996
879.393555	15.813993
878.229492	11.008511
877.066406	-0.209812
875.902344	-9.281204
874.737305	7.316198
873.573242	6.805922
872.408203	-2.250739
871.243164	18.618168
870.077148	73.664276
868.911133	81.697533
867.745117	83.324959
866.579102	138.330002
865.413086	197.582779
864.246094	389.117310
863.079102	621.102356
861.911133	767.664978
860.743164	720.110962
859.576172	529.744446
858.407227	392.758423
857.239258	287.807068
856.070313	174.388794
854.901367	112.148460
853.731445	84.014297
852.562500	38.868420
851.392578	4.392040
850.222656	1.857491
849.051758	9.967628
847.880859	-13.823339
846.709961	0.679597
845.539063	-6.076695
844.367188	-10.697553
843.195313	-0.434551
842.023438	-17.786697
840.851563	-7.512225
839.678711	23.998892
838.505859	15.167060
837.332031	12.714062
836.159180	33.611320
834.985352	24.806307
833.811523	22.376062
832.636719	13.593369
831.461914	30.261875
830.287109	38.452820
829.112305	59.361465
827.936523	63.320801
826.761719	105.409126
825.584961	143.250519
824.409180	178.965500
823.232422	252.767166
822.055664	472.540588
820.878906	865.682556
819.701172	835.663025
818.523438	496.960846
817.345703	268.350861
816.167969	120.167084
814.989258	52.352444
813.810547	83.861679
812.631836	85.797379
811.452148	134.191360
810.272461	91.801109
809.092773	51.549442
807.912109	55.633041
806.732422	36.519150
805.551758	38.511356
804.370117	63.702976
803.189453	90.998428
802.007813	135.147934
800.826172	208.780930
799.643555	290.812225
798.460938	518.120361
797.278320	913.761475
796.095703	1536.553223
794.912109	1944.405640
793.728516	1733.518921
792.544922	1110.468506
791.361328	660.160156
790.176758	426.621674
788.992188	226.831329
787.807617	180.546112
786.622070	172.105743
785.436523	90.160568
784.250977	71.257996
783.064453	31.375971
781.878906	39.793709
780.691406	16.736551
779.504883	6.283104
778.317383	8.424303
777.129883	0.084706
775.942383	-27.114162
774.754883	2.294566
773.566406	-12.310452
772.377930	-16.429800
771.188477	-12.165477
770.000000	0.476096
768.810547	0.554541
767.620117	6.915071
766.430664	-1.371662
765.240234	30.095325
764.049805	0.897938
762.858398	13.535759
761.667969	3.174550
760.476563	30.439299
759.284180	47.245438
758.092773	55.688923
756.900391	68.306465
755.708008	118.501968
754.514648	187.461319
753.322266	333.605438
752.128906	594.435364
750.934570	848.882690
749.741211	884.233948
748.546875	675.626221
747.351563	354.555725
746.157227	242.034363
744.961914	135.815704
743.766602	79.637405
742.571289	40.143650
741.375000	58.961994
740.178711	50.709393
738.982422	52.862743
737.785156	42.529057
736.587891	-1.083036
735.390625	28.104319
734.193359	24.009771
732.995117	30.305531
731.796875	9.579728
730.598633	7.556624
729.399414	20.068577
728.200195	38.798801
727.000977	-4.765911
725.800781	13.950023
724.601563	22.275789
723.401367	61.709209
722.200195	20.230232
720.999023	47.190845
719.798828	90.715775
718.596680	90.689445
717.395508	105.159927
716.193359	103.043495
714.991211	177.548935
713.788086	167.118011
712.585938	235.345856
711.382813	270.419586
710.178711	241.326950
708.975586	352.901794
707.771484	545.068787
706.566406	838.445251
705.362305	1673.245605
704.157227	3402.464844
702.952148	5120.514160
701.747070	4664.729492
700.541016	2699.571045
699.334961	1546.732300
698.128906	1013.666992
696.921875	804.833374
695.714844	647.667480
694.507813	451.376953
693.300781	263.418823
692.092773	186.868011
690.884766	133.015884
689.675781	105.967163
688.467773	120.123802
687.258789	103.368294
686.048828	72.196098
684.839844	90.436134
683.629883	81.900742
682.419922	87.762634
681.208984	77.153778
679.999023	97.389977
678.788086	82.651009
677.576172	86.409935
676.365234	100.433159
675.153320	85.673843
673.940430	130.483337
672.728516	140.348969
671.515625	201.530380
670.302734	238.040527
669.088867	270.419312
667.875977	257.636047
666.662109	255.106247
665.447266	215.655777
664.233398	202.869659
663.018555	212.628845
661.802734	179.341217
660.587891	178.842896
659.372070	135.324097
658.156250	136.870758
656.940430	126.126854
655.723633	80.586746
654.506836	129.192535
653.289063	194.135971
652.072266	459.483612
650.854492	1019.151245
649.636719	1351.626099
648.417969	1179.112671
647.199219	538.757324
645.980469	258.248016
644.761719	171.895050
643.541992	142.754059
642.322266	83.006233
641.101563	45.736412
639.881836	43.171818
638.661133	67.127686
637.440430	11.537743
636.218750	11.026771
634.997070	22.749456
633.775391	3.901553
632.553711	9.516043
631.331055	2.910923
630.108398	-15.903927
628.884766	-4.164618
627.662109	5.540945
626.438477	-7.135255
625.213867	-11.659349
623.990234	18.405716
622.765625	-4.404588
621.541016	1.268568
620.315430	17.112528
619.089844	-11.743121
617.864258	8.184287
616.638672	9.836476
615.412109	-37.230690
614.185547	-13.208764
612.958984	-7.448522
611.731445	-1.674737
610.503906	-4.000673
609.276367	-2.251313
608.047852	-6.566964
606.820313	11.437086
605.590820	7.159731
604.362305	31.270943
603.132813	10.828368
601.903320	0.543549
600.673828	6.483642
599.443359	26.613316
598.212891	24.497166
596.982422	46.684681
595.750977	14.274579
594.519531	58.748917
593.288086	66.837532
592.056641	93.139832
590.824219	212.409363
589.591797	303.365631
588.358398	307.457489
587.125977	257.056000
585.892578	176.426422
584.658203	166.504227
583.424805	160.651215
582.190430	179.037811
580.955078	185.344284
579.720703	207.807098
578.485352	262.541595
577.250000	295.110077
576.013672	293.439819
574.777344	217.268265
573.541016	155.259048
572.304688	177.869385
571.067383	158.226181
569.830078	102.396355
568.592773	78.810303
567.354492	73.364349
566.116211	63.923782
564.877930	82.657486
563.638672	31.056955
562.400391	43.804909
561.160156	38.487049
559.920898	19.130285
558.680664	17.872387
557.440430	8.600248
556.199219	23.430820
554.958984	70.369286
553.717773	43.071060
552.475586	45.876904
551.234375	44.674801
549.992188	71.539696
548.749023	118.431862
547.506836	187.335907
546.263672	250.190140
545.020508	200.855377
543.776367	173.554184
542.532227	112.219521
541.288086	76.907265
540.043945	33.582550
538.798828	38.252747
537.553711	28.886364
536.308594	29.479286
535.062500	6.040838
533.816406	-13.442027
532.570313	10.977245
531.323242	5.361381
530.076172	-0.322655
528.829102	13.881484
527.581055	-7.930712
526.333984	-5.880616
525.084961	-5.926335
523.836914	9.874695
522.587891	21.563446
521.338867	-20.700758
520.089844	10.658389
518.839844	25.917862
517.589844	13.128088
516.338867	24.076019
515.088867	24.888445
513.837891	-2.354704
512.585938	-1.925252
511.334961	-11.654092
510.083008	0.275149
508.831055	4.006494
507.578125	15.434598
506.325195	-17.135859
505.072266	-16.191046
503.819336	8.296062
502.565430	4.650159
501.311523	-3.294710
500.056641	-19.526369
498.802734	3.582121
497.547852	-9.422782
496.291992	-8.942154
495.037109	10.952417
493.781250	24.441559
