#Wave		#Intensity
1796.204102	1014.850952
1795.239258	2093.127930
1794.274414	657.024231
1793.309570	1794.657349
1792.344727	964.978516
1791.378906	1287.677368
1790.413086	597.389526
1789.447266	834.305237
1788.481445	-522.071167
1787.515625	-382.547241
1786.548828	-653.919556
1785.582031	-1311.347778
1784.615234	255.336960
1783.648438	-944.136902
1782.680664	-492.158356
1781.713867	-1705.681396
1780.746094	-1837.201416
1779.778320	-224.712357
1778.809570	672.941833
1777.841797	-93.684097
1776.873047	-1337.104858
1775.904297	-268.984528
1774.935547	-317.695099
1773.966797	862.333679
1772.997070	-206.543411
1772.028320	703.824219
1771.058594	899.974792
1770.087891	283.916565
1769.118164	1142.333984
1768.148438	-70.613670
1767.177734	637.815735
1766.207031	1062.095581
1765.236328	1514.537476
1764.264648	1994.337524
1763.293945	2764.874268
1762.322266	2374.489746
1761.350586	3283.329346
1760.378906	2646.108643
1759.406250	2914.468750
1758.434570	2084.624756
1757.461914	4051.087158
1756.489258	3891.427002
1755.515625	4639.291992
1754.542969	4842.812988
1753.569336	5660.674316
1752.595703	4053.457764
1751.622070	3062.793701
1750.648438	5960.474609
1749.674805	5008.673340
1748.700195	5343.648926
1747.725586	5239.595215
1746.750977	5194.602539
1745.776367	4638.748047
1744.800781	5673.507813
1743.825195	5622.160645
1742.849609	6450.508789
1741.874023	7412.589844
1740.898438	7500.270020
1739.921875	6410.205078
1738.946289	7241.862793
1737.969727	6847.098145
1736.992188	6687.184570
1736.015625	7988.129395
1735.038086	6836.989746
1734.061523	6759.012207
1733.083008	7263.724121
1732.105469	8241.778320
1731.127930	7360.348145
1730.149414	7369.482910
1729.170898	7484.896484
1728.192383	7831.177246
1727.213867	7751.752930
1726.234375	7953.659668
1725.255859	7773.547852
1724.276367	6550.058594
1723.296875	7301.267090
1722.316406	7781.657715
1721.336914	7699.849121
1720.356445	7487.386230
1719.375977	6847.563477
1718.395508	6583.079590
1717.415039	6457.642578
1716.433594	7460.690918
1715.452148	6658.482910
1714.470703	7175.373047
1713.489258	6293.925781
1712.507813	6388.835449
1711.525391	5729.930664
1710.542969	6584.444824
1709.560547	6452.591309
1708.578125	6067.370605
1707.595703	5753.335449
1706.612305	6292.682129
1705.628906	6168.658691
1704.645508	6437.535156
1703.662109	6114.539063
1702.677734	6282.770508
1701.693359	4662.891602
1700.708984	5799.454590
1699.724609	3853.546631
1698.740234	4539.508301
1697.754883	4513.038086
1696.770508	5595.763672
1695.785156	5097.205566
1694.798828	3816.848389
1693.813477	4398.750977
1692.827148	3585.394287
1691.841797	3951.903320
1690.855469	2631.295654
1689.868164	1982.069458
1688.881836	1894.242065
1687.894531	1783.544189
1686.907227	2702.642090
1685.919922	1970.405029
1684.932617	2492.515137
1683.944336	726.068542
1682.957031	1132.292725
1681.968750	2549.536133
1680.980469	645.165405
1679.991211	810.538635
1679.002930	1031.461304
1678.013672	-173.603180
1677.024414	1244.484985
1676.035156	344.318604
1675.044922	1154.983154
1674.055664	44.644398
1673.065430	388.313202
1672.075195	-288.223419
1671.083984	710.040833
1670.093750	252.020096
1669.102539	-680.087830
1668.111328	-713.420532
1667.120117	-837.951782
1666.128906	-1294.562500
1665.136719	-660.018982
1664.145508	-1360.657349
1663.153320	-1251.257324
1662.160156	-515.273254
1661.167969	-767.000000
1660.174805	-1046.545776
1659.182617	-238.857605
1658.188477	-1736.231201
1657.195313	-150.779053
1656.202148	-1176.134277
1655.208008	282.376373
1654.213867	-510.277527
1653.219727	-274.182526
1652.225586	296.604340
1651.230469	277.466614
1650.236328	-76.698097
1649.241211	-441.786102
1648.245117	-124.642754
1647.250000	-504.657837
1646.253906	1122.955322
1645.258789	63.269798
1644.262695	858.507751
1643.265625	603.565613
1642.269531	215.380402
1641.272461	232.142410
1640.275391	-494.332550
1639.278320	1140.403198
1638.281250	830.951111
1637.283203	2209.616211
1636.286133	2162.585693
1635.288086	1148.492920
1634.289063	178.280014
1633.291016	1774.928223
1632.292969	2774.547119
1631.293945	113.128784
1630.294922	645.354431
1629.294922	2422.435303
1628.295898	2879.160156
1627.295898	3105.962646
1626.295898	2829.879395
1625.295898	3617.356689
1624.295898	3633.338135
1623.294922	4097.101563
1622.294922	5997.696777
1621.293945	6066.643555
1620.291992	6222.729980
1619.291016	6427.666504
1618.289063	7609.860840
1617.288086	6807.409180
1616.286133	6897.918945
1615.283203	8248.604492
1614.281250	9799.500977
1613.278320	9664.231445
1612.275391	9227.593750
1611.272461	9120.439453
1610.269531	10315.458984
1609.265625	13602.828125
1608.261719	13047.788086
1607.257813	13045.460938
1606.253906	14208.091797
1605.250000	13485.454102
1604.245117	14103.047852
1603.240234	15394.048828
1602.235352	13924.037109
1601.230469	17121.339844
1600.224609	15464.654297
1599.219727	16993.439453
1598.213867	18072.705078
1597.207031	16665.812500
1596.201172	17655.437500
1595.194336	17627.205078
1594.188477	17344.824219
1593.181641	17640.687500
1592.173828	16111.245117
1591.166992	17275.076172
1590.159180	17669.378906
1589.151367	16761.544922
1588.143555	17605.748047
1587.135742	18301.630859
1586.126953	18352.404297
1585.118164	18398.492188
1584.109375	18457.189453
1583.100586	18145.972656
1582.091797	18913.353516
1581.082031	17674.777344
1580.072266	18535.789063
1579.062500	18743.361328
1578.052734	18485.308594
1577.041992	19028.183594
1576.032227	20759.384766
1575.021484	19597.458984
1574.009766	20613.263672
1572.999023	18812.341797
1571.987305	21081.771484
1570.975586	19377.724609
1569.963867	19377.750000
1568.952148	20000.621094
1567.940430	20594.039063
1566.927734	18221.007813
1565.915039	19987.630859
1564.902344	19814.140625
1563.888672	19586.519531
1562.875977	18900.193359
1561.862305	17815.984375
1560.848633	18754.001953
1559.834961	18449.250000
1558.820313	17442.199219
1557.805664	18753.029297
1556.791016	18357.837891
1555.776367	18836.441406
1554.761719	17612.470703
1553.746094	18328.785156
1552.730469	16340.193359
1551.714844	16350.538086
1550.699219	15740.755859
1549.683594	16278.125977
1548.666992	15244.375977
1547.650391	13738.251953
1546.633789	13109.436523
1545.617188	12732.924805
1544.599609	14468.679688
1543.582031	13663.047852
1542.564453	11391.867188
1541.546875	11924.972656
1540.528320	11904.437500
1539.510742	12490.377930
1538.492188	12706.230469
1537.473633	11401.217773
1536.454102	11259.270508
1535.435547	10125.250000
1534.416016	10649.531250
1533.396484	9959.255859
1532.376953	11041.378906
1531.356445	11409.291016
1530.335938	11451.771484
1529.316406	10510.460938
1528.294922	9038.825195
1527.274414	9499.089844
1526.252930	9080.197266
1525.232422	8911.980469
1524.210938	10502.584961
1523.188477	7441.477539
1522.166992	9032.215820
1521.144531	7359.219727
1520.122070	8311.257813
1519.099609	9364.066406
1518.077148	7881.034180
1517.053711	9057.477539
1516.030273	10704.213867
1515.006836	9436.852539
1513.983398	10343.189453
1512.958984	9980.585938
1511.935547	10543.278320
1510.911133	12018.004883
1509.885742	10532.792969
1508.861328	10538.733398
1507.835938	10576.867188
1506.811523	9309.397461
1505.786133	10575.566406
1504.759766	9707.836914
1503.734375	9474.799805
1502.708008	9336.967773
1501.681641	9274.985352
1500.655273	7600.558105
1499.627930	6361.276855
1498.601563	6483.328613
1497.574219	6559.505371
1496.546875	5564.876953
1495.518555	5968.858887
1494.491211	6576.648926
1493.462891	5641.499512
1492.434570	1769.783081
1491.406250	3259.770264
1490.376953	3168.609619
1489.348633	3527.817871
1488.319336	1728.737793
1487.290039	-175.956223
1486.259766	1682.864624
1485.230469	1662.386719
1484.200195	3357.911133
1483.169922	1770.666870
1482.139648	1706.177856
1481.108398	452.836090
1480.077148	-449.978394
1479.045898	675.634521
1478.014648	-814.049377
1476.983398	-758.722656
1475.951172	1064.894531
1474.918945	-7.763310
1473.886719	718.987671
1472.854492	1835.644531
1471.821289	1598.622070
1470.789063	339.242371
1469.755859	-896.191162
1468.721680	-505.392456
1467.688477	1325.294922
1466.654297	363.061859
1465.620117	233.705597
1464.585938	1382.008911
1463.551758	228.130127
1462.516602	216.910950
1461.481445	-444.637268
1460.446289	540.895569
1459.411133	-276.017212
1458.375977	493.410645
1457.339844	2033.125366
1456.303711	76.945724
1455.267578	-480.902527
1454.230469	226.407837
1453.194336	-366.784332
1452.157227	972.108032
1451.120117	665.024536
1450.082031	-1121.543335
1449.044922	-1446.953003
1448.006836	935.208679
1446.968750	1319.628174
1445.930664	1093.692749
1444.891602	-1262.346558
1443.852539	571.476013
1442.813477	102.737091
1441.774414	-776.704773
1440.735352	-1479.677856
1439.695313	232.890411
1438.655273	185.993713
1437.615234	757.930542
1436.575195	1096.250000
1435.534180	-665.437256
1434.493164	-1444.358398
1433.452148	772.724731
1432.411133	1870.832397
1431.370117	-439.639679
1430.328125	1059.583862
1429.286133	-396.851868
1428.244141	-248.393356
1427.201172	493.396057
1426.159180	-502.598724
1425.116211	1523.255859
1424.073242	297.977234
1423.029297	-393.523010
1421.986328	87.915077
1420.942383	2371.279297
1419.898438	1558.897583
1418.854492	2929.734619
1417.809570	2622.615723
1416.764648	3358.242676
1415.719727	1923.706421
1414.674805	2716.036133
1413.629883	2837.355469
1412.583984	3183.435303
1411.538086	4266.129883
1410.492188	3399.814697
1409.445313	4353.108398
1408.399414	3710.494385
1407.352539	3031.086914
1406.305664	3007.081787
1405.258789	3466.824707
1404.210938	3670.598389
1403.163086	4688.221191
1402.115234	4062.071777
1401.067383	4511.091309
1400.019531	4963.345703
1398.970703	5592.156738
1397.921875	6397.464844
1396.873047	6529.399414
1395.823242	6318.223145
1394.774414	6732.242188
1393.724609	7875.414551
1392.674805	6588.302734
1391.624023	6765.799316
1390.574219	7107.921875
1389.523438	8266.294922
1388.472656	8299.789063
1387.420898	10426.241211
1386.370117	9514.160156
1385.318359	11445.181641
1384.266602	10052.672852
1383.214844	10217.017578
1382.162109	12493.308594
1381.110352	12933.890625
1380.057617	13697.158203
1379.004883	12841.415039
1377.951172	12916.475586
1376.897461	15666.204102
1375.844727	14301.517578
1374.790039	13902.701172
1373.736328	15347.928711
1372.681641	18123.460938
1371.627930	17343.087891
1370.572266	20183.357422
1369.517578	19891.714844
1368.462891	19209.857422
1367.407227	20232.962891
1366.351563	22462.287109
1365.294922	23937.382813
1364.239258	26780.648438
1363.182617	25310.619141
1362.125977	25680.792969
1361.069336	27124.246094
1360.012695	27826.492188
1358.955078	27112.212891
1357.897461	27515.751953
1356.839844	28047.714844
1355.781250	27415.976563
1354.723633	26943.695313
1353.665039	27320.023438
1352.606445	25722.134766
1351.546875	28671.759766
1350.488281	27462.916016
1349.428711	27927.328125
1348.369141	26823.449219
1347.308594	27004.388672
1346.249023	26320.152344
1345.188477	25212.849609
1344.127930	25143.025391
1343.067383	24898.841797
1342.005859	24893.511719
1340.945313	25077.492188
1339.883789	24104.380859
1338.821289	23412.501953
1337.759766	22706.185547
1336.697266	23600.658203
1335.634766	23423.103516
1334.572266	21164.373047
1333.508789	20407.689453
1332.446289	22177.796875
1331.382813	21865.003906
1330.319336	20257.201172
1329.254883	21839.771484
1328.191406	20039.728516
1327.126953	21075.484375
1326.062500	20851.925781
1324.997070	19882.064453
1323.932617	19753.742188
1322.867188	21897.011719
1321.801758	20816.312500
1320.735352	22312.722656
1319.669922	21453.417969
1318.603516	20869.677734
1317.537109	22106.935547
1316.470703	21928.634766
1315.403320	22737.236328
1314.335938	24625.417969
1313.268555	26225.402344
1312.201172	26693.164063
1311.132813	26892.265625
1310.065430	27650.281250
1308.997070	28211.898438
1307.927734	28402.533203
1306.859375	23986.902344
1305.790039	27238.078125
1304.720703	26407.781250
1303.651367	27377.103516
1302.582031	27291.238281
1301.511719	26325.572266
1300.441406	26495.316406
1299.371094	24140.941406
1298.299805	22587.339844
1297.229492	22991.632813
1296.158203	22833.015625
1295.086914	21686.435547
1294.014648	21713.513672
1292.942383	21610.164063
1291.871094	21048.884766
1290.797852	21788.042969
1289.725586	19715.267578
1288.652344	19813.183594
1287.580078	19782.966797
1286.505859	17581.382813
1285.432617	16795.066406
1284.358398	17047.714844
1283.285156	16124.432617
1282.209961	14876.998047
1281.135742	14693.246094
1280.060547	12878.418945
1278.986328	13106.789063
1277.911133	12725.824219
1276.834961	13560.272461
1275.759766	14282.739258
1274.683594	12711.357422
1273.607422	11626.190430
1272.530273	11901.352539
1271.454102	12298.402344
1270.376953	11208.392578
1269.299805	10511.438477
1268.222656	10882.094727
1267.144531	10129.386719
1266.066406	10524.677734
1264.988281	11487.485352
1263.910156	10207.424805
1262.831055	9029.216797
1261.752930	9117.948242
1260.673828	8578.728516
1259.593750	6563.019531
1258.514648	7566.584961
1257.434570	8975.199219
1256.354492	8125.768066
1255.274414	6338.089355
1254.193359	7988.894043
1253.112305	7304.644043
1252.031250	6376.011719
1250.950195	6269.293945
1249.869141	6138.974609
1248.787109	6650.509277
1247.705078	6171.631348
1246.622070	5600.548828
1245.540039	6247.923340
1244.457031	4084.373291
1243.374023	3788.001465
1242.291016	3010.665039
1241.207031	6158.264160
1240.124023	6479.819336
1239.040039	4588.619629
1237.955078	2755.117920
1236.871094	1901.858032
1235.786133	3770.854004
1234.701172	3161.882080
1233.616211	4553.110352
1232.530273	3763.821045
1231.445313	4265.013672
1230.359375	3861.900146
1229.272461	1757.275879
1228.186523	2911.506348
1227.099609	2916.529541
1226.012695	3165.672363
1224.925781	3056.444580
1223.837891	3871.543213
1222.750000	2576.791260
1221.662109	2446.541504
1220.574219	3180.271484
1219.486328	1480.677002
1218.397461	1551.271484
1217.308594	1435.466309
1216.218750	1053.588867
1215.129883	1564.165039
1214.040039	-1.376197
1212.950195	196.278183
1211.860352	1683.135620
1210.769531	21.464779
1209.678711	838.700684
1208.587891	697.819092
1207.497070	-505.485474
1206.406250	-557.424866
1205.314453	920.085571
1204.222656	-279.523743
1203.129883	-1231.292114
1202.038086	-916.932861
1200.945313	2176.406982
1199.852539	10.435687
1198.759766	-2142.433594
1197.666016	812.637268
1196.572266	-643.300964
1195.478516	1241.570313
1194.384766	1007.413879
1193.290039	-320.242371
1192.195313	-170.319061
1191.100586	930.815186
1190.005859	995.104187
1188.910156	-378.828552
1187.814453	980.250793
1186.718750	1257.567383
1185.623047	1755.596436
1184.526367	1922.494263
1183.429688	1735.461914
1182.333008	4774.881348
1181.236328	3795.914795
1180.138672	2979.095703
1179.041016	2777.779785
1177.943359	2359.068359
1176.845703	3414.780762
1175.747070	99.544006
1174.648438	2361.808350
1173.549805	2468.237061
1172.450195	2069.770508
1171.351563	1089.301025
1170.251953	1244.170410
1169.151367	806.136658
1168.051758	479.029663
1166.951172	1729.691895
1165.850586	1792.011353
1164.750000	879.402771
1163.649414	1333.093506
1162.547852	385.056091
1161.446289	725.773071
1160.343750	-560.595520
1159.242188	-567.904602
1158.139648	-728.718201
1157.037109	-2520.114746
1155.934570	-727.709534
1154.831055	323.532501
1153.727539	581.940247
1152.624023	2.961853
1151.520508	305.951874
1150.416016	-363.211456
1149.312500	-944.657715
1148.207031	-159.649887
1147.102539	-989.182983
1145.997070	-766.262390
1144.892578	-1213.045044
1143.786133	520.514709
1142.680664	-987.447205
1141.574219	557.592590
1140.467773	953.657654
1139.361328	651.574036
1138.254883	-53.550697
1137.147461	2448.565674
1136.040039	989.324951
1134.932617	-240.477295
1133.824219	2982.284180
1132.716797	3167.060059
1131.608398	1134.148315
1130.499023	1534.187622
1129.390625	749.820618
1128.281250	2091.373779
1127.171875	1918.942505
1126.062500	-805.393188
1124.952148	1016.176453
1123.841797	-433.874969
1122.731445	860.657959
1121.621094	750.481018
1120.509766	485.215027
1119.398438	93.837563
1118.287109	143.242783
1117.175781	-97.081139
1116.063477	-953.671326
1114.951172	510.922607
1113.838867	1047.439819
1112.725586	-57.158207
1111.613281	-7.889090
1110.500000	-1703.850830
1109.386719	-307.306396
1108.272461	180.297394
1107.158203	521.543640
1106.043945	-14.232732
1104.929688	-2427.290039
1103.814453	-2009.952515
1102.700195	-1696.659424
1101.584961	-363.926056
1100.468750	-780.199707
1099.353516	-677.476196
1098.237305	243.256058
1097.121094	-1931.096924
1096.003906	778.511414
1094.886719	-2214.854248
1093.770508	796.780823
1092.652344	622.033081
1091.535156	-1322.786743
1090.416992	483.478424
1089.298828	1056.430298
1088.180664	577.283325
1087.061523	-850.639526
1085.943359	889.784851
1084.824219	1658.580566
1083.704102	-627.789612
1082.584961	517.022705
1081.464844	1802.755249
1080.344727	226.175644
1079.223633	931.789124
1078.103516	2402.327637
1076.982422	1143.678467
1075.861328	992.707581
1074.739258	3261.011230
1073.618164	2015.454590
1072.496094	2857.887207
1071.373047	661.742798
1070.250977	1734.924438
1069.127930	846.369873
1068.004883	76.890686
1066.881836	1414.736816
1065.757813	796.498047
1064.633789	1551.176758
1063.509766	1502.585938
1062.385742	571.569885
1061.260742	2352.340088
1060.135742	1656.497314
1059.010742	2228.011230
1057.885742	521.538879
1056.759766	-660.804993
1055.633789	2117.146973
1054.507813	1724.427246
1053.380859	1457.022827
1052.254883	-643.505249
1051.127930	1157.908325
1050.000000	2241.918457
1048.873047	2087.498535
1047.745117	843.833374
1046.617188	425.223328
1045.488281	844.555359
1044.360352	1964.091797
1043.231445	2755.759766
1042.102539	4443.613770
1040.972656	3137.880859
1039.842773	3288.742188
1038.712891	1968.606323
1037.583008	1732.037598
1036.453125	1413.069092
1035.322266	2075.547852
1034.191406	2386.628906
1033.059570	768.438660
1031.928711	1101.822266
1030.796875	675.092346
1029.665039	-25.186552
1028.532227	745.201721
1027.400391	188.265930
1026.267578	1527.717041
1025.133789	-180.227585
1024.000977	-416.491486
1022.867188	-1483.838257
1021.733398	-173.353958
1020.599609	-348.725098
1019.464844	311.443634
1018.330078	-407.899994
1017.195313	157.744415
1016.060547	-1328.810425
1014.924805	-2563.360840
1013.789063	-121.581306
1012.653320	-864.690552
1011.516602	-118.175903
1010.380859	-205.752869
1009.244141	628.009460
1008.106445	560.419800
1006.969727	1303.955078
1005.832031	-147.022354
1004.694336	2410.725342
1003.555664	1391.390259
1002.417969	1572.206177
1001.279297	1240.308228
1000.139648	2088.253418
999.000977	1435.123901
997.861328	2461.892334
996.721680	3395.332520
995.582031	1675.534912
994.441406	1632.744629
993.300781	1008.144043
992.160156	838.916321
991.019531	921.838013
989.877930	30.680763
988.736328	-985.495300
987.594727	1131.366821
986.452148	1412.691162
985.310547	746.642517
984.166992	823.125854
983.024414	-356.620544
981.881836	-127.674698
980.738281	679.349731
979.593750	-801.026489
978.450195	-238.128372
977.305664	-1215.117432
976.161133	548.417969
975.016602	824.344360
973.872070	559.652771
972.726563	-129.998474
971.581055	-1270.475830
970.434570	-2226.842529
969.289063	-1676.408936
968.142578	-2026.574585
966.996094	-612.452698
965.848633	-240.112106
964.701172	-765.633179
963.553711	619.535339
962.406250	-414.086853
961.257813	76.332039
960.110352	1018.247742
958.960938	336.956726
957.812500	-536.237305
956.663086	-23.509480
955.513672	242.754730
954.364258	1365.167114
953.214844	1353.120605
952.064453	-556.689514
950.914063	1017.511536
949.762695	-632.396179
948.612305	261.002808
947.460938	1063.824463
946.309570	-777.558167
945.157227	264.260101
944.004883	-811.876648
942.852539	1734.548096
941.700195	780.706726
940.547852	2108.553223
939.394531	-72.389748
938.241211	433.665894
937.086914	417.739990
935.932617	2201.873047
934.778320	251.456070
933.624023	743.817444
932.469727	184.129456
931.314453	349.498444
930.159180	1418.190918
929.002930	1717.591431
927.847656	1317.039917
926.691406	1039.850952
925.535156	250.672058
924.377930	1834.413452
923.220703	744.757385
922.063477	88.345650
920.906250	1822.382568
919.748047	-100.133636
918.589844	236.080048
917.431641	987.228699
916.273438	1166.517578
915.114258	-271.904388
913.955078	49.784523
912.795898	246.884323
911.635742	-288.085358
910.475586	-908.546631
909.315430	-236.698441
908.155273	25.104359
906.994141	510.001099
905.833008	623.703186
904.671875	510.169586
903.509766	-194.870407
902.347656	958.394958
901.185547	-251.979965
900.023438	-311.565277
898.860352	665.363342
897.697266	896.752075
896.534180	1228.626465
895.370117	-207.261475
894.207031	1660.755249
893.042969	-153.189667
891.877930	-105.948196
890.713867	388.065826
889.548828	-943.522400
888.382813	-28.718811
887.217773	174.201019
886.051758	-321.458496
884.885742	269.933258
883.719727	-114.652115
882.552734	288.463928
881.385742	228.295273
880.218750	-501.777405
879.050781	-659.953064
877.883789	-922.595642
876.714844	-213.100052
875.546875	-1223.865356
874.377930	-374.050720
873.209961	-91.283020
872.040039	-194.192581
870.871094	-1006.059021
869.701172	-2145.363770
868.531250	-613.154846
867.361328	-617.852173
866.190430	687.869934
865.019531	-303.809265
863.848633	-767.618225
862.676758	-272.419983
861.505859	144.079834
860.333984	-888.523071
859.161133	1097.980835
857.989258	1219.243286
856.816406	-969.395569
855.642578	1453.684326
854.469727	-1145.070923
853.295898	723.767700
852.122070	939.724121
850.948242	32.022068
849.773438	575.328125
848.598633	1421.955811
847.423828	202.539261
846.248047	1833.745361
845.073242	1014.177979
843.897461	1356.005859
842.720703	1793.583984
841.544922	2106.839600
840.368164	2190.032715
839.190430	1905.803589
838.013672	2718.277588
836.835938	1695.774902
835.658203	1725.386841
834.480469	2421.824707
833.301758	777.664917
832.123047	1260.630615
830.944336	851.186462
829.764648	1019.598267
828.584961	207.563324
827.405273	1746.331055
826.225586	1813.026855
825.044922	-966.768799
823.864258	-297.539795
822.683594	-518.907776
821.501953	-582.540588
820.321289	447.378693
819.138672	1297.277100
817.957031	785.833252
816.774414	878.834534
815.591797	1039.116577
814.409180	898.281067
813.225586	342.945190
812.042969	1265.055176
810.858398	2517.041748
809.674805	2439.741211
808.490234	937.225891
807.305664	2000.300781
806.121094	1726.817749
804.935547	2790.146729
803.750000	2979.840576
802.564453	1687.593384
801.378906	1744.567871
800.192383	937.508667
799.005859	696.275696
797.818359	-133.480331
796.631836	-1374.927002
795.444336	-1228.642700
794.256836	-609.557678
793.068359	-635.179565
791.879883	-97.881760
790.691406	-2056.671387
789.502930	1945.535278
788.313477	817.101685
787.124023	105.202324
785.934570	749.319214
784.744141	-819.127075
783.553711	-544.287903
782.363281	449.433411
781.172852	-763.651855
779.981445	69.992195
778.790039	-1161.963867
777.598633	362.277710
776.406250	-268.225616
775.213867	1241.895752
774.021484	1101.548584
772.829102	288.821106
771.635742	1732.065918
770.442383	697.747070
769.248047	2149.925049
768.054688	2339.396484
766.860352	2365.700439
765.665039	846.948730
764.470703	1514.467651
763.275391	1526.872681
762.080078	1980.154297
760.883789	1401.697388
759.688477	-39.219913
758.492188	2309.830811
757.294922	-718.296082
756.098633	-475.736847
754.901367	876.032288
753.704102	847.041016
752.505859	1498.284668
751.307617	430.608368
750.109375	572.879333
748.911133	-1030.112305
747.711914	486.820251
746.512695	-946.133484
745.313477	-1013.294189
744.114258	1325.906494
742.914063	62.552464
741.713867	868.295837
740.512695	833.678772
739.311523	106.190811
738.110352	-126.259514
736.909180	-26.097563
735.707031	-847.501160
734.504883	-328.248230
733.302734	1635.853882
732.100586	780.285767
730.897461	159.599899
729.694336	185.024582
728.490234	106.422104
727.287109	-324.763153
726.083008	-354.302612
724.877930	-1161.528198
723.673828	-206.204453
722.468750	-1530.394287
721.263672	-143.854507
720.057617	-1256.464722
718.851563	388.182800
717.645508	-76.646347
716.439453	32.807804
715.232422	882.159363
714.025391	-94.265656
712.818359	925.640930
711.611328	836.070740
710.403320	654.818481
709.194336	805.344177
707.986328	289.395813
706.777344	2012.314941
705.568359	-56.726238
704.359375	2058.180176
703.149414	2860.138916
701.939453	-349.059387
700.729492	406.801056
699.518555	-182.133865
698.308594	-589.823425
697.096680	7.086302
695.885742	629.073608
694.673828	-900.991882
