#Wave		#Intensity
1678.89356	3.33333E-7
1677.90527	547.98848
1676.91699	600.02913
1675.92871	570.06608
1674.93945	893.11011
1673.95019	732.5214
1672.96094	453.74687
1671.97168	726.01221
1670.98242	637.08789
1669.99219	532.27694
1669.00195	535.44084
1668.01172	524.6807
1667.02148	821.86247
1666.03027	263.07353
1665.03906	421.2098
1664.04883	312.44472
1663.05664	316.25779
1662.06543	474.86373
1661.07324	683.69084
1660.08203	626.7137
1659.08984	667.25057
1658.09766	768.1403
1657.10449	562.44922
1656.11231	971.5332
1655.11914	721.16544
1654.12598	1230.83765
1653.13184	1289.97331
1652.13867	1287.13053
1651.14453	1261.11548
1650.15039	1216.58642
1649.15625	1299.92098
1648.16211	1144.90218
1647.16699	799.31811
1646.17285	1178.69149
1645.17773	1189.75879
1644.18164	704.96094
1643.18652	702.37003
1642.19043	738.04932
1641.19531	863.80534
1640.19922	367.39958
1639.20215	374.45451
1638.20606	500.823
1637.20898	442.70154
1636.21191	96.48747
1635.21484	80.53305
1634.21777	193.39119
1633.21973	-181.16911
1632.22266	217.04415
1631.22461	12.5793
1630.22656	120.73706
1629.22754	-24.01824
1628.22949	-13.01967
1627.23047	-82.16832
1626.23144	-610.82902
1625.23144	-358.67623
1624.23242	-230.57894
1623.23242	134.88372
1622.23242	375.87003
1621.23242	97.05332
1620.23242	86.25282
1619.23242	108.1628
1618.23144	213.27049
1617.23047	172.834
1616.22949	546.18453
1615.22754	663.23279
1614.22656	894.4283
1613.22461	1260.19816
1612.22266	1128.98104
1611.2207	1299.05591
1610.21777	1838.03898
1609.21484	1806.22729
1608.21289	2205.1298
1607.20898	2267.93986
1606.20606	2535.79761
1605.20313	2539.4965
1604.19922	2628.49731
1603.19531	3040.94246
1602.19141	3599.72176
1601.18652	3824.06877
1600.18262	3641.61694
1599.17773	4080.12183
1598.17285	4119.63712
1597.16699	3984.93172
1596.16211	4098.08211
1595.15625	4549.99617
1594.15039	4473.9825
1593.14453	4491.6189
1592.13867	4286.87183
1591.13184	4924.92326
1590.125	5045.57788
1589.11816	4837.49455
1588.11133	5040.545
1587.10449	5808.10978
1586.09668	5842.19637
1585.08887	6128.3728
1584.08106	6461.3702
1583.07324	6611.00171
1582.06445	6836.60978
1581.05664	7199.01082
1580.04785	7352.88973
1579.03906	7387.17293
1578.0293	7822.09416
1577.02051	8223.18595
1576.01074	8311.70288
1575.00098	8561.64168
1573.99023	8787.13843
1572.98047	9252.27775
1571.96973	9077.13387
1570.95898	9295.98218
1569.94824	9248.78426
1568.9375	9827.56356
1567.92578	9785.19767
1566.91504	9796.07658
1565.90332	10268.69311
1564.89063	10352.95028
1563.87891	10347.0935
1562.86621	10502.45809
1561.85352	10873.76082
1560.84082	10760.94116
1559.82813	11125.76343
1558.81445	11612.77384
1557.80176	11831.11629
1556.78809	11973.38712
1555.77441	12486.12671
1554.75977	13122.3064
1553.74609	13110.05119
1552.73144	12996.71655
1551.7168	13125.40275
1550.70117	12973.78426
1549.68652	13241.78166
1548.6709	12581.18791
1547.65527	12486.47567
1546.63965	12573.19702
1545.62402	12089.19051
1544.60742	12005.53817
1543.59082	11329.73087
1542.57422	10918.92554
1541.55762	10812.47827
1540.54004	9994.60653
1539.52344	9954.21265
1538.50586	9257.22241
1537.48828	9097.92423
1536.46973	8936.19572
1535.45215	8527.32462
1534.43359	8802.70223
1533.41504	8513.03361
1532.39648	8680.64884
1531.37695	8821.04598
1530.3584	8863.23478
1529.33887	9126.09025
1528.31934	9117.73804
1527.29883	9581.78296
1526.2793	9398.98869
1525.25879	9724.20093
1524.23828	9914.05054
1523.21777	9806.38517
1522.19629	9863.57462
1521.17578	10028.07658
1520.1543	9896.42619
1519.13281	10225.51929
1518.11035	10065.51994
1517.08887	9814.15145
1516.06641	10034.20093
1515.04394	10072.22502
1514.02148	10135.68595
1512.99805	10009.54012
1511.97559	10285.20874
1510.95215	10151.8116
1509.92871	9944.45483
1508.9043	9450.78426
1507.88086	9059.13582
1506.85644	8627.28882
1505.83203	8034.06486
1504.80762	7241.89038
1503.78223	6849.00301
1502.75781	6354.64949
1501.73242	5916.41512
1500.70703	5189.82169
1499.68066	4506.4327
1498.65527	3875.44409
1497.62891	3437.6202
1496.60254	2850.70776
1495.57617	2535.22599
1494.54883	2190.7185
1493.52246	1808.23804
1492.49512	1256.97135
1491.46777	947.76237
1490.43945	822.32088
1489.41211	477.94442
1488.38379	495.27445
1487.35547	777.18237
1486.32715	538.33077
1485.29785	340.99145
1484.26953	215.33962
1483.24023	-21.28536
1482.21094	-145.90455
1481.18066	-194.43943
1480.15137	-23.12629
1479.12109	-246.45304
1478.09082	-63.03312
1477.06055	-26.84306
1476.0293	148.49148
1474.99805	90.9193
1473.96777	-40.85127
1472.93555	160.47509
1471.9043	57.42164
1470.87207	37.54326
1469.84082	-124.82949
1468.80859	203.22571
1467.77539	403.61051
1466.74316	116.74072
1465.70996	430.94145
1464.67676	694.30168
1463.64356	741.40511
1462.61035	1203.57031
1461.57617	1267.27213
1460.54199	1342.52173
1459.50781	2180.09237
1458.47363	1865.11206
1457.43848	2335.16903
1456.40332	2505.08179
1455.36816	2794.00041
1454.33301	3683.26278
1453.29785	3401.21297
1452.26172	3352.92228
1451.22559	3853.50627
1450.18945	3331.52384
1449.15332	3559.01245
1448.11621	3484.28231
1447.0791	3347.28686
1446.04199	3608.24748
1445.00488	3059.54696
1443.96777	2675.66284
1442.92969	2704.82544
1441.8916	2303.22176
1440.85352	2110.28328
1439.81543	1726.67049
1438.77637	1318.32633
1437.73731	1566.37866
1436.69824	1235.55143
1435.65918	956.32365
1434.61914	483.55961
1433.5791	582.92098
1432.54004	671.48271
1431.49902	385.00175
1430.45898	121.84776
1429.41797	-175.43508
1428.37695	149.4634
1427.33594	166.6174
1426.29492	-2.61235
1425.25293	26.00669
1424.21094	-54.3544
1423.16894	-175.09507
1422.12695	4.2655
1421.08496	118.90609
1420.04199	194.75671
1418.99902	-94.82813
1417.95606	-10.00294
1416.91211	-161.1555
1415.86914	-155.18731
1414.82519	158.47325
1413.78125	88.02992
1412.73731	74.08332
1411.69238	-132.12934
1410.64746	14.56948
1409.60254	77.90524
1408.55762	48.02517
1407.51172	3.59377
1406.4668	-258.53693
1405.4209	-168.01317
1404.375	-95.16909
1403.32813	-390.62101
1402.28223	-269.29502
1401.23535	-154.89868
1400.18848	67.95652
1399.14063	-46.23065
1398.09375	137.93905
1397.0459	69.64517
1395.99805	-23.19435
1394.95019	164.35751
1393.90137	290.87341
1392.85352	235.72188
1391.80469	576.75203
1390.75586	225.38926
1389.70606	893.17065
1388.65723	552.40312
1387.60742	515.95406
1386.55762	631.86592
1385.50684	772.40617
1384.45703	927.31909
1383.40625	474.83492
1382.35547	1014.47192
1381.30469	935.39331
1380.25293	1160.2015
1379.20117	1010.64665
1378.14941	883.56274
1377.09766	1149.39827
1376.0459	1348.40332
1374.99316	1058.70312
1373.94043	1225.64713
1372.88769	1210.80753
1371.83496	1421.0061
1370.78125	1488.51017
1369.72754	1599.35815
1368.67383	1775.98006
1367.62012	1589.56079
1366.56641	2410.28524
1365.51172	2650.62622
1364.45703	2994.85587
1363.40234	3105.76733
1362.34668	2941.4493
1361.29199	2911.43074
1360.23633	2875.69572
1359.17969	2844.87248
1358.12402	2697.12329
1357.06738	2356.34318
1356.01172	2537.93074
1354.95508	2043.7937
1353.89746	2191.67293
1352.84082	1705.73039
1351.7832	1742.62915
1350.72559	1871.18237
1349.66797	1705.31339
1348.60938	1657.86369
1347.55078	1759.70451
1346.49219	1672.43074
1345.43359	1510.6049
1344.375	1243.73218
1343.31543	1387.09936
1342.25586	1722.63908
1341.19629	1341.68335
1340.13672	1615.05884
1339.07617	1279.17969
1338.01563	1175.84294
1336.95508	1374.93644
1335.89453	1247.23323
1334.83301	1572.4519
1333.77148	1518.5769
1332.70996	1774.28621
1331.64844	2286.61662
1330.58594	2259.84204
1329.52441	2215.01554
1328.46191	2462.36125
1327.39941	2481.48527
1326.33594	2853.14266
1325.27246	3057.13517
1324.20898	2985.85099
1323.14551	2763.16284
1322.08203	3530.15177
1321.01758	3623.26863
1319.95313	3564.60978
1318.88867	3714.08341
1317.82422	3997.49227
1316.75879	4265.95711
1315.69336	4164.52742
1314.62793	4176.79175
1313.5625	4545.281
1312.49609	4737.98836
1311.43066	4961.99975
1310.36426	5169.1355
1309.29688	4996.41707
1308.23047	4393.78426
1307.16309	4676.87345
1306.0957	4411.49878
1305.02832	3451.47013
1303.95996	3315.31095
1302.89258	2904.29891
1301.82422	2645.27628
1300.75586	2369.11873
1299.68652	1583.14949
1298.61816	1930.86613
1297.54883	1201.64901
1296.47949	1098.47282
1295.40918	921.50179
1294.33984	1066.26204
1293.26953	581.43135
1292.19922	558.71948
1291.12793	404.45447
1290.05762	625.8317
1288.98633	219.64927
1287.91504	382.02409
1286.84375	292.69374
1285.77148	184.98891
1284.69922	197.02356
1283.62695	-221.25189
1282.55469	-38.37161
1281.48144	-36.49764
1280.40918	265.07072
1279.33594	-15.74767
1278.26172	221.6862
1277.18848	166.71937
1276.11426	739.77946
1275.04004	608.243
1273.96582	766.40771
1272.8916	743.7067
1271.81641	882.40381
1270.74121	902.44027
1269.66602	1322.17049
1268.58984	1273.27637
1267.51465	1257.73323
1266.43848	1610.82707
1265.36231	1526.73511
1264.28516	1733.2395
1263.20898	1643.37394
1262.13184	1677.88061
1261.05469	2106.62199
1259.97656	2203.39754
1258.89941	2417.6062
1257.82129	2752.03524
1256.74316	2449.00871
1255.66504	2580.64477
1254.58594	3199.43758
1253.50684	3124.86531
1252.42773	3218.406
1251.34863	3430.32365
1250.26856	3270.53003
1249.18945	3568.39071
1248.10938	3513.0743
1247.02832	3171.63159
1245.94824	3264.53133
1244.86719	3477.18791
1243.78613	3175.23836
1242.70508	3219.09741
1241.62305	2969.73055
1240.54102	2831.17977
1239.45898	2490.00138
1238.37695	2548.33944
1237.29492	2262.55688
1236.21191	2290.29175
1235.12891	2069.46053
1234.0459	2260.30672
1232.96191	1734.61955
1231.87891	1738.38957
1230.79492	1849.90487
1229.70996	1899.51326
1228.62598	1649.0022
1227.54102	1275.52466
1226.45606	1682.1744
1225.37109	1398.71623
1224.28613	1113.43546
1223.20019	962.51253
1222.11426	979.74992
1221.02832	914.75122
1219.94238	643.01591
1218.85547	437.07825
1217.76856	291.81447
1216.68164	377.05782
1215.59375	-83.60044
1214.50684	153.99024
1213.41894	26.65313
1212.33106	0.63057
1211.24219	-21.69488
1210.1543	-339.811
1209.06543	-280.97396
1207.97656	-432.02332
1206.88672	-172.09786
1205.79785	-277.58887
1204.70801	-130.00938
1203.61816	-152.6243
1202.52734	7.99981
1201.43652	-182.31246
1200.34668	45.5359
1199.25488	170.37662
1198.16406	134.1846
1197.07227	-14.09859
1195.98144	-310.71053
1194.88867	13.58269
1193.79688	141.50112
1192.7041	-153.82879
1191.61231	233.30753
1190.51856	201.88417
1189.42578	21.8305
1188.33203	53.22836
1187.23828	-143.2149
1186.14453	12.72402
1185.05078	261.35712
1183.95606	312.21761
1182.86133	445.89591
1181.7666	491.37655
1180.67188	384.28491
1179.57617	488.5175
1178.48047	535.65731
1177.38477	33.7939
1176.28906	183.50673
1175.19238	122.13349
1174.0957	195.62502
1172.99902	117.83742
1171.90234	293.24691
1170.80469	102.26771
1169.70703	90.29154
1168.60938	-49.00682
1167.51172	-99.74399
1166.41309	-15.81466
1165.31445	172.76491
1164.21582	184.91003
1163.11719	905.46338
1162.01758	964.37231
1160.91797	1122.91585
1159.81836	1328.56754
1158.71777	1461.76294
1157.61816	1637.81779
1156.51758	1790.47778
1155.41699	1789.23527
1154.31543	1774.47176
1153.21387	1898.74357
1152.11231	2490.85425
1151.01074	2546.28963
1149.90918	2782.7963
1148.80664	2561.77466
1147.7041	2922.73869
1146.60156	3519.07658
1145.49805	3990.2439
1144.39551	3977.33211
1143.29199	4011.06193
1142.1875	4164.34123
1141.08398	4788.43791
1139.97949	4723.74097
1138.875	4769.09578
1137.77051	4851.54337
1136.66504	4835.54598
1135.56055	5030.07267
1134.45508	5183.1993
1133.34863	5013.84058
1132.24316	5172.75203
1131.13672	5100.86011
1130.03027	5024.04858
1128.92383	5225.80314
1127.81641	5123.7797
1126.70898	5098.56356
1125.60156	4888.17163
1124.49414	4958.03296
1123.38574	5000.49975
1122.27832	4794.18172
1121.16894	4808.11727
1120.06055	4621.68465
1118.95117	4420.7286
1117.84277	4621.19311
1116.73242	4690.30737
1115.62305	4615.68823
1114.51269	4713.8256
1113.40332	4130.40568
1112.29199	3899.31584
1111.18164	3714.20288
1110.07031	4189.58927
1108.95898	4331.97013
1107.84766	4330.14233
1106.73633	4107.30379
1105.62402	4242.84969
1104.51172	4800.30086
1103.39941	5223.19865
1102.28613	5537.406
1101.17383	5549.04272
1100.06055	6088.9327
1098.94629	6156.78752
1097.83301	6197.76798
1096.71875	6266.71525
1095.60449	6447.01473
1094.49023	6152.51798
1093.375	5694.05249
1092.25977	5752.42228
1091.14453	5423.08895
1090.0293	4943.29891
1088.91309	4947.69018
1087.79785	4568.75919
1086.68164	4235.08081
1085.56445	4488.53654
1084.44824	4437.61564
1083.33106	4321.82332
1082.21289	4191.72762
1081.0957	4069.57755
1079.97754	4396.09871
1078.85938	4331.01571
1077.74121	4145.50431
1076.62305	3830.36955
1075.50391	3563.39526
1074.38477	3364.19995
1073.26563	3233.84448
1072.14551	3411.39754
1071.02637	3037.98738
1069.90625	3243.29468
1068.78516	2969.42586
1067.66504	3038.42358
1066.54394	2657.41414
1065.42285	3200.33244
1064.30078	2993.50464
1063.17969	3365.64917
1062.05762	3602.87834
1060.93555	3711.94149
1059.81348	4234.57755
1058.69043	4600.90731
1057.56738	4998.03621
1056.44434	5142.93205
1055.32031	5867.64754
1054.19727	5863.69897
1053.07324	6334.90666
1051.94824	6771.54337
1050.82422	7146.68009
1049.69922	7659.26538
1048.57422	7679.51603
1047.44922	7117.79533
1046.32324	7051.53361
1045.19727	6738.34546
1044.07129	6505.66707
1042.94531	5981.68009
1041.81836	5831.1508
1040.69238	5492.91186
1039.56445	5006.15145
1038.4375	4463.35555
1037.30957	4391.24617
1036.18164	4050.29337
1035.05371	3685.31388
1033.92578	3802.40535
1032.79688	3613.6394
1031.66797	3539.40991
1030.53906	3542.9021
1029.40918	3370.53133
1028.2793	3362.23315
1027.14941	3189.55705
1026.01953	3022.27287
1024.88867	2738.86694
1023.75879	2265.65584
1022.62695	2473.89656
1021.49609	2674.53068
1020.36426	2581.50757
1019.23242	2258.09123
1018.10059	2337.57593
1016.96875	2218.23494
1015.83594	2417.98625
1014.70313	2571.36434
1013.57031	2594.8977
1012.43652	2699.97729
1011.30273	2883.61694
1010.16895	3168.09481
1009.03516	3403.68856
1007.90039	3824.58016
1006.7666	4192.53035
1005.63086	4950.42521
1004.49609	5301.37052
1003.36035	6373.60327
1002.22461	6681.57462
1001.08887	6739.83699
999.95313	6783.06356
998.81641	6331.08048
997.67969	5792.39559
996.54297	5418.55119
995.40527	4854.75334
994.26758	5125.93172
993.12988	4925.00236
991.99219	4612.94995
990.85352	4498.28752
989.71484	4311.88615
988.57617	4344.95386
987.4375	3999.50561
986.29785	3727.08992
985.1582	3627.073
984.01855	3647.27612
982.87793	3727.57104
981.7373	3962.16154
980.59668	4065.71232
979.45605	4076.51375
978.31445	3880.08732
977.17285	4024.82918
976.03125	3891.49715
974.88965	4232.88094
973.74707	4532.38712
972.60449	4641.49422
971.46191	5226.32983
970.31836	5052.55054
969.17578	5334.80705
968.03223	5265.37475
966.8877	5608.5577
965.74414	5773.92293
964.59961	5986.43725
963.45508	5935.36369
962.30957	5831.83895
961.16406	6439.43725
960.01855	6047.26343
958.87305	6174.4021
957.72754	6443.16056
956.58105	6011.69051
955.43457	6038.38843
954.28809	6258.03556
953.14063	6358.28296
951.99316	6340.65731
950.8457	6547.32918
949.69727	6654.57007
948.5498	6935.70288
947.40137	6775.56421
946.25293	7031.78491
945.10352	7226.20744
943.9541	7197.45548
942.80469	7499.13843
941.65527	7183.54598
940.50488	7298.69311
939.35449	7486.38582
938.2041	7113.18465
937.05371	6862.1189
935.90234	6307.69377
934.75098	6180.35392
933.59961	5351.53556
932.44727	4915.51343
931.29492	4294.98804
930.14258	3742.87345
928.99023	2912.78231
927.83691	2043.55721
926.68359	1463.75724
925.53027	1278.22884
924.37598	661.22595
923.22266	747.93628
922.06836	210.89612
920.91309	57.31655
919.75879	313.85858
918.60352	2.3348
917.44824	65.25654
916.29199	-271.12234
915.13672	-18.18292
913.98047	126.63748
912.82324	181.35152
911.66699	88.60392
910.50977	-74.01135
909.35254	36.70927
908.19531	-26.84151
907.03711	54.1005
905.87891	433.14502
904.7207	144.95036
903.56152	172.44733
902.40332	-149.21443
901.24414	-118.09193
900.08398	-185.77169
898.9248	-135.71341
897.76465	-174.76058
896.60449	34.04551
895.44336	26.05237
894.2832	-302.64223
893.12207	-50.05368
891.95996	-291.08087
890.79883	84.21793
889.63672	542.16585
888.47461	464.96155
887.31152	682.28072
886.14941	931.91968
884.98633	1249.55054
883.82324	1801.72111
882.65918	2123.18546
881.49512	2440.87199
880.33105	2877.06453
879.16699	2753.43237
878.00195	2189.03735
876.83691	2397.87573
875.67188	2044.53898
874.50684	1846.90015
873.34082	1291.16658
872.1748	940.26237
871.00781	744.95215
869.8418	572.40983
868.6748	-14.80231
867.50781	165.48542
866.33984	-0.62367
865.17285	10.95146
864.00488	-357.73735
862.83594	-41.45166
861.66797	-14.85452
860.49902	59.2309
859.33008	293.9964
858.16016	115.11853
856.99121	63.2479
855.82129	39.70189
854.65039	-283.94694
853.48047	-138.10442
852.30957	46.57803
851.13867	-205.87824
849.9668	-89.46808
848.7959	224.45064
847.62402	228.97654
846.45117	34.08422
845.2793	292.27606
844.10645	238.48922
842.93359	445.39758
841.75977	219.52767
840.58691	530.15385
839.41309	301.03098
838.23926	481.25578
837.06445	578.2821
835.88965	546.58211
834.71484	590.77266
833.54004	7.70522
832.36426	24.68307
831.18848	338.43951
830.0127	251.10771
828.83594	174.70475
827.65918	92.99059
826.48242	28.18733
825.30566	118.49641
824.12793	237.9718
822.9502	438.04606
821.77246	569.9991
820.59375	698.33325
819.41602	327.61348
818.2373	671.34574
817.05762	486.25309
815.87793	675.63367
814.69824	848.38273
813.51855	831.46859
812.33887	780.0992
811.1582	779.3925
809.97754	807.51147
808.7959	973.37638
807.61523	436.23559
806.43359	602.86182
805.25098	451.66679
804.06934	394.31063
802.88672	204.71224
801.7041	385.43111
800.52051	12.91931
799.33789	104.97757
798.1543	348.18677
796.96973	60.63113
795.78613	150.38196
794.60156	65.69251
793.41699	-198.91937
792.23145	-108.54251
791.04688	-180.22068
789.86035	-82.67483
788.6748	-91.45317
787.48926	-244.95174
786.30273	-22.57139
785.11523	21.48585
783.92871	-115.79383
782.74121	-98.71268
781.55371	477.99605
780.36621	351.64543
779.17773	518.57462
777.98926	716.6748
776.80078	1008.7692
775.6123	809.45695
774.42285	1018.00985
773.2334	1101.05745
772.04297	1211.12695
770.85352	1130.95028
769.66309	1337.58667
768.47168	1419.5673
767.28125	1618.10181
766.08984	1285.49471
764.89844	1490.33716
763.70605	1074.81738
762.51465	1101.13769
761.32227	972.46273
760.12891	781.81169
758.93652	966.14543
757.74316	744.08195
756.5498	745.24569
755.35547	540.88204
754.16211	639.2146
752.9668	640.4858
751.77246	483.25264
750.57715	527.79004
749.38281	794.76652
748.18652	479.76428
746.99121	425.43522
745.79492	470.63786
744.59863	624.29309
743.40137	416.44177
742.20508	332.35693
741.00781	347.70951
739.81055	174.43355
738.6123	-28.63946
737.41406	404.22526
736.21582	178.47139
735.0166	30.96596
733.81836	115.65307
732.61914	-63.15119
731.41895	264.84953
730.21973	61.2737
729.01953	-159.28188
727.81934	-274.08812
726.61816	89.36006
725.41699	-121.13683
724.21582	-164.51035
723.01465	-163.1458
721.8125	89.06415
720.61035	135.54205
719.4082	152.78096
718.20508	402.7043
717.00195	578.77926
715.79883	552.75216
714.5957	828.50928
713.3916	710.53418
712.1875	905.58276
710.98242	1004.09554
709.77832	1118.74463
708.57324	1279.82755
707.36719	1402.25268
706.16211	1216.12736
704.95605	1600.96069
703.75	1713.36792
702.54297	1963.55054
701.33691	1989.24373
700.12988	2193.56242
698.92188	2460.50838
697.71484	2845.31616
696.50684	3180.58699
695.29785	3647.00301
694.08984	3819.97436
692.88086	4226.01636
691.67188	4624.31128
690.46289	5370.67488
689.25293	5913.54272
688.04297	6442.3422
686.83301	7007.10978
685.62207	7958.50822
684.41113	8794.44702
683.2002	9205.90991
681.98828	9983.48283
680.77637	10574.43009
679.56445	10819.62931
678.35254	11165.34806
677.13965	11064.57983
675.92676	10706.82202
674.71387	10222.55054
673.5	9835.48934
672.28613	9165.66837
671.07227	8302.8064
669.8584	8156.38192
668.64355	7811.56811
667.42871	7475.11043
666.21289	7079.35653
664.99805	6692.92879
663.78223	6439.34676
662.56543	6454.9646
661.34961	6293.66056
660.13281	5905.7133
658.91602	5592.35327
657.69824	5561.09871
656.48047	5424.8689
655.2627	5255.25789
654.04492	5224.96785
652.82617	4991.56584
651.60742	5024.72274
650.38867	5118.93433
649.16895	5281.93172
647.94922	5544.61043
646.72949	6266.76994
645.50879	6700.48934
644.28809	6886.77449
643.06738	7738.47502
641.84668	8246.40991
640.625	8899.36564
639.40332	9556.25431
638.18164	10199.05054
636.95898	11225.28426
635.73633	11683.92358
634.51367	11976.12541
633.29004	11897.04728
632.06641	12307.15405
630.84277	12012.7465
629.61914	11667.64103
628.39453	11107.42358
627.16992	10638.95679
625.94531	10096.83699
624.71973	9559.99715
623.49414	9244.50757
622.26855	8730.42554
621.04199	8334.99194
619.81543	8062.23348
618.58887	7706.39689
617.36133	7547.20223
616.13477	7564.69377
614.90723	7660.28426
613.67871	7484.1521
612.4502	7466.3728
611.22168	7226.51473
609.99316	6492.25171
608.76367	5900.36304
607.53418	5250.0297
606.30469	5010.77938
605.0752	4254.89754
603.84473	3976.47599
602.61426	3498.84416
601.38281	3049.06877
600.15137	2855.81877
598.91992	2756.59709
597.68848	2239.69002
596.45605	1897.91593
595.22363	1635.04761
593.99121	1688.16235
592.75781	1340.2137
591.52441	1235.7688
590.29102	1199.8763
589.05762	1020.12093
587.82324	773.37142
586.58887	883.86727
585.35352	697.1206
584.11816	733.11759
582.88281	855.20296
581.64746	649.47856
580.41113	465.22351
579.1748	366.21684
577.93848	53.66826
576.70117	274.15423
575.46484	122.06971
574.22656	88.78583
572.98926	345.40832
571.75098	317.46246
570.5127	204.99247
569.27344	143.42396
568.03516	423.62699
566.7959	105.75653
565.55566	199.40983
564.31641	-27.83008
563.07617	-209.54399
561.83496	-156.22175
560.59473	-348.06877
559.35352	-251.37339
558.11133	-18.5086
556.87012	-288.65757
555.62793	-167.65658
554.38574	-122.1463
553.14355	16.93574
551.90039	160.46859
550.65723	541.48454
549.41309	554.61169