#Wave		#Intensity
1678.89356	0
1677.90527	234.03825
1676.91699	169.39087
1675.92871	239.07406
1674.93945	212.66762
1673.95019	-185.71085
1672.96094	-387.22989
1671.97168	-704.30497
1670.98242	-643.48916
1669.99219	-560.84853
1669.00195	-1065.77442
1668.01172	-702.59308
1667.02148	-622.55391
1666.03027	-765.317
1665.03906	-483.21344
1664.04883	-829.74973
1663.05664	-988.66468
1662.06543	-621.82066
1661.07324	-833.13182
1660.08203	-1182.87881
1659.08984	-817.02634
1658.09766	-623.88437
1657.10449	-724.14764
1656.11231	-1028.33384
1655.11914	-1035.07458
1654.12598	-614.40411
1653.13184	-200.581
1652.13867	-634.50286
1651.14453	-424.64605
1650.15039	-556.54963
1649.15625	-738.70974
1648.16211	-711.1746
1647.16699	-438.10562
1646.17285	-927.9869
1645.17773	-590.11873
1644.18164	-560.52318
1643.18652	-596.08106
1642.19043	-910.9264
1641.19531	-425.45496
1640.19922	-625.71647
1639.20215	-348.28077
1638.20606	-684.18895
1637.20898	-621.94977
1636.21191	-1016.78563
1635.21484	-461.47004
1634.21777	-629.8332
1633.21973	-1115.91309
1632.22266	-311.83043
1631.22461	-545.56011
1630.22656	-269.43585
1629.22754	-366.33283
1628.22949	-509.95642
1627.23047	-762.70462
1626.23144	-961.57449
1625.23144	-888.63502
1624.23242	-551.25202
1623.23242	-553.21982
1622.23242	-41.91577
1621.23242	-391.85714
1620.23242	-302.88306
1619.23242	-651.14962
1618.23144	-106.21115
1617.23047	-412.41528
1616.22949	446.75733
1615.22754	191.90586
1614.22656	224.54887
1613.22461	217.01502
1612.22266	-38.57721
1611.2207	451.70482
1610.21777	693.74419
1609.21484	1277.5052
1608.21289	1097.34996
1607.20898	1430.72845
1606.20606	1489.77832
1605.20313	1386.78102
1604.19922	1412.82848
1603.19531	1346.01235
1602.19141	1515.43045
1601.18652	1789.77714
1600.18262	1773.32629
1599.17773	2109.61873
1598.17285	1819.22708
1597.16699	1509.91499
1596.16211	1672.27226
1595.15625	1658.3438
1594.15039	1263.50914
1593.14453	1723.19131
1592.13867	797.75397
1591.13184	1257.16488
1590.125	1397.56194
1589.11816	1045.52912
1588.11133	1081.03562
1587.10449	1667.83266
1586.09668	1619.68202
1585.08887	2113.09656
1584.08106	2541.9676
1583.07324	2903.95444
1582.06445	2617.32395
1581.05664	2503.89927
1580.04785	2703.56592
1579.03906	2297.79129
1578.0293	2228.81124
1577.02051	1858.36023
1576.01074	2075.90315
1575.00098	1757.22803
1573.99023	1037.76909
1572.98047	1079.09599
1571.96973	1077.43443
1570.95898	826.71668
1569.94824	414.7343
1568.9375	589.85966
1567.92578	265.03713
1566.91504	276.14007
1565.90332	-210.06904
1564.89063	-38.68155
1563.87891	-47.47244
1562.86621	-155.94435
1561.85352	37.93564
1560.84082	28.08105
1559.82813	-372.10071
1558.81445	-134.46819
1557.80176	-275.27216
1556.78809	-758.88281
1555.77441	-732.55337
1554.75977	-468.14632
1553.74609	-612.55765
1552.73144	-684.11782
1551.7168	-26.91128
1550.70117	-448.42658
1549.68652	-485.65508
1548.6709	-544.46267
1547.65527	-971.36544
1546.63965	-160.99384
1545.62402	-359.90503
1544.60742	-825.32882
1543.59082	-506.49844
1542.57422	-202.27282
1541.55762	-630.77151
1540.54004	-734.58385
1539.52344	-1057.54004
1538.50586	-799.49688
1537.48828	-1094.73944
1536.46973	-1009.15988
1535.45215	-538.24929
1534.43359	-608.61643
1533.41504	-728.62067
1532.39648	-595.06476
1531.37695	-619.30801
1530.3584	-568.63791
1529.33887	-626.33225
1528.31934	-465.91141
1527.29883	-956.14586
1526.2793	-845.55928
1525.25879	-894.88003
1524.23828	-667.60222
1523.21777	-508.69472
1522.19629	-791.01521
1521.17578	-651.39971
1520.1543	-985.62569
1519.13281	-820.74874
1518.11035	-665.56455
1517.08887	-908.89037
1516.06641	-599.61131
1515.04394	-812.85874
1514.02148	-478.39285
1512.99805	-619.44437
1511.97559	-716.13324
1510.95215	-455.02645
1509.92871	-386.02512
1508.9043	-864.50069
1507.88086	-725.63104
1506.85644	-902.59629
1505.83203	-715.03851
1504.80762	-952.98649
1503.78223	-429.40305
1502.75781	-697.94805
1501.73242	-749.36362
1500.70703	-763.52249
1499.68066	-829.17285
1498.65527	-922.87785
1497.62891	-510.36538
1496.60254	-669.64479
1495.57617	-679.67968
1494.54883	-769.10743
1493.52246	-751.29941
1492.49512	-686.98875
1491.46777	-743.94186
1490.43945	-386.26063
1489.41211	-478.29645
1488.38379	-966.26211
1487.35547	-422.63397
1486.32715	-491.47123
1485.29785	-832.63168
1484.26953	-94.0003
1483.24023	-383.95594
1482.21094	-687.74542
1481.18066	-544.97805
1480.15137	-1041.56106
1479.12109	-675.62696
1478.09082	-535.24356
1477.06055	-274.082
1476.0293	-222.09117
1474.99805	-37.70793
1473.96777	-41.40366
1472.93555	-351.53345
1471.9043	-81.22863
1470.87207	-217.07523
1469.84082	-355.08942
1468.80859	-214.68092
1467.77539	159.92162
1466.74316	-436.92907
1465.70996	-199.02625
1464.67676	-556.70565
1463.64356	-411.36289
1462.61035	-388.75148
1461.57617	354.17827
1460.54199	161.47408
1459.50781	584.74491
1458.47363	436.28898
1457.43848	156.10276
1456.40332	868.64184
1455.36816	780.73197
1454.33301	484.88083
1453.29785	714.11972
1452.26172	1063.58355
1451.22559	1586.38171
1450.18945	863.76079
1449.15332	573.58768
1448.11621	611.62843
1447.0791	889.96835
1446.04199	1304.57394
1445.00488	1052.16258
1443.96777	924.65944
1442.92969	395.94885
1441.8916	829.48943
1440.85352	1090.09488
1439.81543	1311.59557
1438.77637	767.90672
1437.73731	1118.83481
1436.69824	776.29753
1435.65918	429.52241
1434.61914	559.83564
1433.5791	561.37643
1432.54004	837.11707
1431.49902	496.09616
1430.45898	450.02577
1429.41797	454.80318
1428.37695	588.63309
1427.33594	242.02294
1426.29492	-78.89433
1425.25293	-86.83031
1424.21094	-151.95887
1423.16894	35.94631
1422.12695	419.28952
1421.08496	285.975
1420.04199	107.04393
1418.99902	552.8855
1417.95606	30.22896
1416.91211	302.02555
1415.86914	495.99663
1414.82519	676.38392
1413.78125	547.38295
1412.73731	744.29433
1411.69238	647.97546
1410.64746	992.00763
1409.60254	813.76854
1408.55762	624.44535
1407.51172	446.92565
1406.4668	888.04198
1405.4209	1070.55893
1404.375	1164.02711
1403.32813	1360.71244
1402.28223	928.48364
1401.23535	1265.26519
1400.18848	1611.35448
1399.14063	1916.4326
1398.09375	1801.10034
1397.0459	1523.84955
1395.99805	1790.82671
1394.95019	1971.19569
1393.90137	1626.48533
1392.85352	1999.23548
1391.80469	2568.4524
1390.75586	2386.82539
1389.70606	2082.35034
1388.65723	2262.00239
1387.60742	1716.53543
1386.55762	2024.50826
1385.50684	1796.86567
1384.45703	2162.30874
1383.40625	1627.70275
1382.35547	1959.46967
1381.30469	1690.02363
1380.25293	1525.76253
1379.20117	1496.23372
1378.14941	1574.03359
1377.09766	1356.23574
1376.0459	1386.8829
1374.99316	1442.84768
1373.94043	1321.69383
1372.88769	984.8732
1371.83496	1396.51871
1370.78125	1405.96155
1369.72754	863.47932
1368.67383	1425.78343
1367.62012	940.95395
1366.56641	1192.48605
1365.51172	1255.75967
1364.45703	965.17821
1363.40234	1106.26497
1362.34668	666.70163
1361.29199	992.17453
1360.23633	451.38122
1359.17969	353.32096
1358.12402	1064.99722
1357.06738	715.86263
1356.01172	763.77358
1354.95508	277.26147
1353.89746	169.55068
1352.84082	318.10567
1351.7832	263.11658
1350.72559	-160.53695
1349.66797	122.42884
1348.60938	220.01889
1347.55078	541.83379
1346.49219	642.14613
1345.43359	245.22934
1344.375	294.15178
1343.31543	-16.04256
1342.25586	591.66947
1341.19629	-330.15233
1340.13672	33.9835
1339.07617	77.56694
1338.01563	-391.11879
1336.95508	-527.49195
1335.89453	-320.47817
1334.83301	-715.73172
1333.77148	-413.46676
1332.70996	-174.21355
1331.64844	-149.0073
1330.58594	-531.58584
1329.52441	-586.91771
1328.46191	-407.60313
1327.39941	-638.13384
1326.33594	-496.64962
1325.27246	-854.90014
1324.20898	-1255.51482
1323.14551	-676.52725
1322.08203	-869.45745
1321.01758	-992.29921
1319.95313	-1108.09335
1318.88867	-821.01918
1317.82422	-751.93275
1316.75879	-992.86029
1315.69336	-1152.53551
1314.62793	-1727.60708
1313.5625	-844.18191
1312.49609	-612.26567
1311.43066	-573.35267
1310.36426	-455.64283
1309.29688	-1053.78611
1308.23047	-625.89855
1307.16309	-583.87782
1306.0957	-339.7801
1305.02832	-842.37266
1303.95996	-216.73625
1302.89258	-864.43471
1301.82422	-709.30431
1300.75586	-603.33618
1299.68652	-857.87848
1298.61816	-731.37763
1297.54883	-486.05869
1296.47949	-563.03246
1295.40918	-568.1552
1294.33984	-662.61668
1293.26953	-716.57714
1292.19922	-519.82228
1291.12793	-325.20672
1290.05762	-278.08254
1288.98633	-487.85903
1287.91504	-335.34578
1286.84375	-546.92832
1285.77148	-590.71755
1284.69922	-734.83573
1283.62695	-316.06882
1282.55469	-111.6438
1281.48144	-355.75432
1280.40918	-1.6277
1279.33594	330.18113
1278.26172	345.277
1277.18848	657.05948
1276.11426	953.23399
1275.04004	380.13382
1273.96582	578.4293
1272.8916	315.5787
1271.81641	144.29187
1270.74121	8.81724
1269.66602	-195.51001
1268.58984	-444.14966
1267.51465	17.32665
1266.43848	67.08955
1265.36231	-105.52608
1264.28516	40.06583
1263.20898	47.80632
1262.13184	-104.41894
1261.05469	-134.25786
1259.97656	-6.23221
1258.89941	35.15197
1257.82129	547.46452
1256.74316	682.11524
1255.66504	643.60017
1254.58594	942.55201
1253.50684	393.72518
1252.42773	87.02017
1251.34863	-195.10735
1250.26856	-563.54298
1249.18945	-44.93015
1248.10938	-566.11064
1247.02832	-595.02676
1245.94824	-814.46697
1244.86719	-745.79669
1243.78613	-415.803
1242.70508	-375.99942
1241.62305	-167.94292
1240.54102	-90.55111
1239.45898	-199.05598
1238.37695	-115.05062
1237.29492	-50.98618
1236.21191	35.1704
1235.12891	229.60904
1234.0459	136.61171
1232.96191	481.1929
1231.87891	467.68101
1230.79492	602.15202
1229.70996	546.63656
1228.62598	466.8176
1227.54102	614.36527
1226.45606	786.08768
1225.37109	97.20835
1224.28613	599.76695
1223.20019	623.49519
1222.11426	95.9333
1221.02832	719.2563
1219.94238	-138.79611
1218.85547	376.22241
1217.76856	-212.72635
1216.68164	22.23493
1215.59375	-5.00506
1214.50684	-3.70565
1213.41894	-352.42635
1212.33106	-318.19141
1211.24219	-508.45036
1210.1543	-736.11645
1209.06543	-647.10624
1207.97656	-617.58954
1206.88672	-465.08601
1205.79785	-989.61751
1204.70801	-892.23951
1203.61816	-1210.17156
1202.52734	-902.17462
1201.43652	-890.84216
1200.34668	-655.74953
1199.25488	-1118.7492
1198.16406	-1544.38341
1197.07227	-1028.87494
1195.98144	-1476.53667
1194.88867	-1009.7746
1193.79688	-1209.79479
1192.7041	-607.70302
1191.61231	-529.73116
1190.51856	-964.55016
1189.42578	-446.59837
1188.33203	-294.70795
1187.23828	-734.13722
1186.14453	-501.59288
1185.05078	-860.14502
1183.95606	-129.18977
1182.86133	-83.34996
1181.7666	-206.09459
1180.67188	-403.29334
1179.57617	-296.75043
1178.48047	-57.13301
1177.38477	-237.30207
1176.28906	-137.98153
1175.19238	-460.37448
1174.0957	94.89107
1172.99902	-103.38117
1171.90234	-87.89361
1170.80469	-362.80215
1169.70703	-98.9864
1168.60938	-12.15274
1167.51172	-424.8885
1166.41309	-440.89952
1165.31445	-657.63076
1164.21582	-464.83819
1163.11719	-461.88187
1162.01758	-783.66945
1160.91797	-382.60668
1159.81836	-471.78547
1158.71777	-548.08814
1157.61816	-628.95346
1156.51758	-359.74784
1155.41699	-808.67356
1154.31543	-418.24919
1153.21387	160.89783
1152.11231	2.6913
1151.01074	0.77034
1149.90918	113.74946
1148.80664	676.05843
1147.7041	797.0172
1146.60156	1134.77813
1145.49805	1526.39988
1144.39551	1450.99752
1143.29199	1310.27791
1142.1875	1095.60729
1141.08398	997.87369
1139.97949	1112.401
1138.875	441.89682
1137.77051	308.8957
1136.66504	513.69471
1135.56055	187.3926
1134.45508	688.28425
1133.34863	-203.59538
1132.24316	142.90273
1131.13672	-309.65717
1130.03027	293.63961
1128.92383	-7.88257
1127.81641	432.29681
1126.70898	400.60255
1125.60156	-143.72658
1124.49414	72.70479
1123.38574	459.45734
1122.27832	590.82272
1121.16894	559.83952
1120.06055	213.30778
1118.95117	777.70298
1117.84277	447.96196
1116.73242	1013.61618
1115.62305	812.82625
1114.51269	1079.88968
1113.40332	973.47008
1112.29199	1319.5515
1111.18164	1178.0382
1110.07031	1579.35281
1108.95898	1741.03611
1107.84766	1730.0202
1106.73633	1410.75774
1105.62402	1317.40447
1104.51172	2192.44978
1103.39941	2315.72389
1102.28613	2191.20184
1101.17383	2247.13798
1100.06055	2670.49731
1098.94629	2671.93187
1097.83301	2081.92051
1096.71875	1494.02308
1095.60449	1359.46403
1094.49023	1308.44193
1093.375	1656.60829
1092.25977	1179.79414
1091.14453	1746.19757
1090.0293	1163.82018
1088.91309	2023.33474
1087.79785	2079.85353
1086.68164	2597.16193
1085.56445	2725.81653
1084.44824	3184.27201
1083.33106	3432.17404
1082.21289	3649.66108
1081.0957	3356.89891
1079.97754	3558.73091
1078.85938	3601.72219
1077.74121	3462.43527
1076.62305	3588.32638
1075.50391	2581.87403
1074.38477	2065.51543
1073.26563	1591.88872
1072.14551	1274.28666
1071.02637	407.11723
1069.90625	737.01753
1068.78516	333.50484
1067.66504	205.52081
1066.54394	359.25276
1065.42285	519.05113
1064.30078	424.42844
1063.17969	972.08352
1062.05762	802.17913
1060.93555	937.18139
1059.81348	1195.57971
1058.69043	1895.02194
1057.56738	2402.00272
1056.44434	1755.31341
1055.32031	2099.61014
1054.19727	1410.17204
1053.07324	1336.38688
1051.94824	436.0844
1050.82422	521.75557
1049.69922	539.01233
1048.57422	383.64522
1047.44922	328.11438
1046.32324	27.73461
1045.19727	-130.24773
1044.07129	-135.2978
1042.94531	-421.164
1041.81836	-237.45965
1040.69238	-272.88812
1039.56445	-486.98583
1038.4375	-422.9667
1037.30957	-465.36771
1036.18164	-352.98881
1035.05371	-525.24958
1033.92578	-345.40901
1032.79688	-269.81207
1031.66797	-359.86533
1030.53906	-649.37667
1029.40918	-955.91815
1028.2793	-730.53659
1027.14941	-473.64887
1026.01953	-602.6039
1024.88867	-1076.90993
1023.75879	-1212.35328
1022.62695	-1079.08339
1021.49609	-1113.21543
1020.36426	-389.98633
1019.23242	-488.04818
1018.10059	-806.16866
1016.96875	-1024.90615
1015.83594	-867.40388
1014.70313	-678.40396
1013.57031	-1332.72558
1012.43652	-1465.08806
1011.30273	-923.76386
1010.16895	-1005.72113
1009.03516	-980.08484
1007.90039	-914.49212
1006.7666	-513.49895
1005.63086	-703.53108
1004.49609	-716.37927
1003.36035	-450.99067
1002.22461	-483.05941
1001.08887	-690.13489
999.95313	-412.53315
998.81641	-354.25353
997.67969	-692.03769
996.54297	-181.11299
995.40527	-436.81439
994.26758	-378.84087
993.12988	-344.09036
991.99219	-921.5979
990.85352	-236.91858
989.71484	-116.1401
988.57617	315.69361
987.4375	-120.75066
986.29785	-298.56764
985.1582	-140.17539
984.01855	108.45003
982.87793	-138.63918
981.7373	248.40769
980.59668	-11.18099
979.45605	593.91662
978.31445	441.36852
977.17285	326.66902
976.03125	407.07239
974.88965	162.51168
973.74707	630.72481
972.60449	275.22366
971.46191	711.86001
970.31836	771.30685
969.17578	617.21104
968.03223	419.2671
966.8877	600.30935
965.74414	735.32721
964.59961	884.98635
963.45508	676.99192
962.30957	858.11598
961.16406	1262.94844
960.01855	842.08404
958.87305	1368.13901
957.72754	1217.16667
956.58105	842.86893
955.43457	1009.71439
954.28809	1235.06464
953.14063	1627.39992
951.99316	1366.53495
950.8457	1226.93828
949.69727	1709.09712
948.5498	1438.41488
947.40137	1660.00607
946.25293	2121.35767
945.10352	2280.48454
943.9541	2020.95672
942.80469	2463.65151
941.65527	2371.1525
940.50488	2614.05035
939.35449	2738.3846
938.2041	2606.90783
937.05371	2806.48247
935.90234	2494.48248
934.75098	2661.12067
933.59961	2314.38722
932.44727	1995.04002
931.29492	2465.7145
930.14258	2086.69158
928.99023	1321.74877
927.83691	1398.3939
926.68359	1265.5632
925.53027	1035.49424
924.37598	662.58809
923.22266	676.00597
922.06836	54.98258
920.91309	487.90911
919.75879	460.67969
918.60352	381.90595
917.44824	315.88405
916.29199	51.27505
915.13672	683.93174
913.98047	190.08707
912.82324	235.0211
911.66699	-164.74949
910.50977	114.67714
909.35254	-69.12841
908.19531	-159.4659
907.03711	79.32634
905.87891	-4.18149
904.7207	-705.31761
903.56152	-143.265
902.40332	-155.45202
901.24414	-320.15152
900.08398	-424.56684
898.9248	-264.34264
897.76465	-110.05431
896.60449	-366.12044
895.44336	-691.87439
894.2832	-416.93664
893.12207	-422.21326
891.95996	-802.34124
890.79883	-839.79398
889.63672	-248.41616
888.47461	-647.84104
887.31152	-725.42774
886.14941	-444.32782
884.98633	-84.77131
883.82324	330.55321
882.65918	793.37423
881.49512	748.23474
880.33105	1145.6695
879.16699	846.24898
878.00195	660.4075
876.83691	680.55309
875.67188	405.18418
874.50684	631.56345
873.34082	203.06608
872.1748	627.26153
871.00781	844.30654
869.8418	1071.89466
868.6748	698.57595
867.50781	1060.19728
866.33984	987.25193
865.17285	1002.89536
864.00488	1012.76615
862.83594	656.17518
861.66797	554.20233
860.49902	450.61875
859.33008	273.74086
858.16016	-88.98779
856.99121	-56.08996
855.82129	-593.79855
854.65039	-864.88414
853.48047	-546.34914
852.30957	-736.79787
851.13867	-853.16931
849.9668	-895.52228
848.7959	-984.47697
847.62402	-1146.56536
846.45117	-1197.89798
845.2793	-636.19322
844.10645	-705.25158
842.93359	-437.11429
841.75977	-854.40492
840.58691	-587.66856
839.41309	-1020.31842
838.23926	-265.56103
837.06445	8.05224
835.88965	137.17505
834.71484	260.47229
833.54004	27.53114
832.36426	-339.37486
831.18848	0.84575
830.0127	1.2504
828.83594	-54.98704
827.65918	80.41277
826.48242	179.45592
825.30566	189.2837
824.12793	53.0277
822.9502	-306.47383
821.77246	-295.58058
820.59375	140.31032
819.41602	60.28613
818.2373	-468.25469
817.05762	-360.67475
815.87793	-439.6233
814.69824	-339.64582
813.51855	-391.6221
812.33887	-212.03519
811.1582	-1032.12867
809.97754	-1170.27541
808.7959	-468.83656
807.61523	-407.92835
806.43359	-604.11824
805.25098	-743.24036
804.06934	-282.60595
802.88672	-591.35448
801.7041	-379.50019
800.52051	-501.44167
799.33789	-93.01892
798.1543	311.38018
796.96973	1288.12027
795.78613	1670.14002
794.60156	3218.51883
793.41699	3806.39842
792.23145	4056.77356
791.04688	3969.84024
789.86035	4214.32548
788.6748	3843.03548
787.48926	3504.35515
786.30273	3509.04594
785.11523	2773.4385
783.92871	2084.67155
782.74121	1053.54045
781.55371	744.76782
780.36621	270.95097
779.17773	-597.50357
777.98926	-558.873
776.80078	-195.91044
775.6123	-998.98995
774.42285	-915.80138
773.2334	-840.65986
772.04297	-753.42929
770.85352	-851.31448
769.66309	-671.5551
768.47168	-622.56187
767.28125	-712.31956
766.08984	-930.65206
764.89844	-644.54628
763.70605	-561.48433
762.51465	-1089.06414
761.32227	-684.74057
760.12891	-274.62302
758.93652	-386.58793
757.74316	-422.30248
756.5498	91.56723
755.35547	302.28618
754.16211	981.97086
752.9668	887.49889
751.77246	1167.71059
750.57715	1135.11664
749.38281	886.05306
748.18652	869.30971
746.99121	628.16532
745.79492	82.73967
744.59863	1.69132
743.40137	40.56632
742.20508	-564.85961
741.00781	-390.26102
739.81055	-325.9066
738.6123	-873.41361
737.41406	-1037.19916
736.21582	-467.91769
735.0166	-805.94131
733.81836	-882.46487
732.61914	-899.29941
731.41895	-493.23625
730.21973	-1029.50193
729.01953	-721.89775
727.81934	-1011.08419
726.61816	-961.4278
725.41699	-708.75826
724.21582	-809.28802
723.01465	-914.06872
721.8125	-598.78063
720.61035	-471.19082
719.4082	-357.9365
718.20508	-255.02598
717.00195	163.92077
715.79883	-305.10688
714.5957	77.11599
713.3916	725.28505
712.1875	1502.00131
710.98242	1568.31671
709.77832	3406.89375
708.57324	4201.09588
707.36719	6112.84515
706.16211	7453.3077
704.95605	9152.07009
703.75	10293.80593
702.54297	10491.95704
701.33691	9963.43766
700.12988	10047.63331
698.92188	9175.53576
697.71484	8299.43807
696.50684	7116.09222
695.29785	5312.62495
694.08984	3505.59793
692.88086	2513.02403
691.67188	1884.8063
690.46289	1373.22605
689.25293	701.10339
688.04297	766.89765
686.83301	147.6988
685.62207	590.3916
684.41113	470.82972
683.2002	-26.73339
681.98828	-326.90902
680.77637	-38.61847
679.56445	-55.16539
678.35254	48.27347
677.13965	-56.14377
675.92676	142.98789
674.71387	-134.07851
673.5	225.77785
672.28613	257.53297
671.07227	196.09663
669.8584	360.93428
668.64355	1012.06753
667.42871	1008.15318
666.21289	1230.31775
664.99805	1142.66422
663.78223	1627.60955
662.56543	1284.97192
661.34961	1178.22647
660.13281	972.67274
658.91602	994.96337
657.69824	1390.4713
656.48047	1504.14975
655.2627	1931.86511
654.04492	2197.7704
652.82617	2771.59242
651.60742	2700.3604
650.38867	2290.93587
649.16895	2164.02195
647.94922	972.79481
646.72949	1220.29695
645.50879	80.07103
644.28809	-120.37324
643.06738	-79.88545
641.84668	-355.45428
640.625	-746.91796
639.40332	-464.40349
638.18164	-344.98411
636.95898	-515.87185
635.73633	-546.00353
634.51367	-224.02525
633.29004	-470.15141
632.06641	-628.39233
630.84277	-436.64203
629.61914	-783.13235
628.39453	-924.40552
627.16992	-350.33073
625.94531	-576.16347
624.71973	-667.29111
623.49414	-319.03146
622.26855	-734.79288
621.04199	-773.69359
619.81543	-371.55882
618.58887	-951.45891
617.36133	-350.76079
616.13477	-932.60093
614.90723	-796.59181
613.67871	-658.81338
612.4502	-663.47619
611.22168	-886.47406
609.99316	-731.43129
608.76367	-952.45825
607.53418	-622.27668
606.30469	-374.02904
605.0752	-1066.03795
603.84473	-1133.03243
602.61426	-696.05865
601.38281	-599.63731
600.15137	-1407.42281
598.91992	-1299.04556
597.68848	-663.88266
596.45605	-1012.16964
595.22363	-522.84083
593.99121	-567.70676
592.75781	-860.94652
591.52441	-806.36363
590.29102	-512.88216
589.05762	-700.53662
587.82324	-990.6951
586.58887	-409.66846
585.35352	-414.24026
584.11816	-420.46843
582.88281	-486.48593
581.64746	-534.72529
580.41113	-257.21294
579.1748	-552.73527
577.93848	-576.71503
576.70117	-819.07202
575.46484	-517.14542
574.22656	-423.95889
572.98926	-471.62047
571.75098	38.05648
570.5127	-654.62399
569.27344	-672.00139
568.03516	-97.63277
566.7959	-717.03446
565.55566	-445.32497
564.31641	-584.58307
563.07617	-333.38139
561.83496	-128.18286
560.59473	-760.03994
559.35352	-524.99449
558.11133	-588.54666
556.87012	-848.2785
555.62793	-538.77372
554.38574	-712.7029
553.14355	-1024.82625
551.90039	-594.75487
550.65723	-767.23939
549.41309	-785.19551