#Wave		#Intensity
1800.60156	-2.58065E-6
1798.94824	258.07931
1797.2959	204.21908
1795.6416	-56.81915
1793.98828	45.6103
1792.33398	188.24866
1790.67871	293.73376
1789.02344	330.38974
1787.36816	150.11623
1785.71191	66.692
1784.05566	178.27735
1782.39844	272.63322
1780.74121	344.21822
1779.08398	242.10412
1777.42578	192.36118
1775.76758	310.44158
1774.1084	264.23948
1772.44922	246.73627
1770.78906	206.76529
1769.12891	427.06889
1767.46875	49.53255
1765.80762	208.20894
1764.14551	217.29183
1762.48438	1.66694
1760.82129	134.61588
1759.15918	156.16938
1757.49609	230.65248
1755.83203	325.27617
1754.16797	140.85257
1752.50391	55.05367
1750.83887	-119.36016
1749.17383	94.33937
1747.50879	276.36516
1745.84277	353.47504
1744.17578	271.80447
1742.50879	85.51515
1740.8418	130.01506
1739.17383	71.83618
1737.50586	-70.5912
1735.83691	124.47755
1734.16797	358.45152
1732.49902	177.11081
1730.8291	147.38731
1729.15918	144.1709
1727.48828	383.75921
1725.81738	183.46619
1724.14551	159.63148
1722.47363	143.04734
1720.80078	334.42579
1719.12891	435.96483
1717.45508	113.48683
1715.78125	359.8795
1714.10742	367.6476
1712.43359	269.35248
1710.75781	87.99617
1709.08301	275.37957
1707.40723	232.92472
1705.73144	362.39474
1704.05469	409.68714
1702.37695	351.84544
1700.70019	30.99408
1699.02246	101.15734
1697.34375	246.13926
1695.66504	-80.52305
1693.98633	300.18216
1692.30664	461.77919
1690.62695	288.75168
1688.94629	464.82
1687.26563	358.94761
1685.58398	397.43026
1683.90234	525.73776
1682.21973	644.40735
1680.53809	579.74985
1678.85449	604.74091
1677.1709	740.38088
1675.48731	800.52535
1673.80371	1011.27136
1672.11816	1137.80189
1670.43359	1082.12625
1668.74805	1483.78876
1667.06152	1391.48392
1665.37598	1393.43342
1663.68848	1458.92107
1662.00195	1745.1465
1660.31348	2007.13806
1658.62598	2262.19445
1656.9375	2349.41817
1655.24805	2830.10964
1653.55859	2846.29853
1651.86914	3037.18248
1650.17871	3240.04538
1648.48828	3564.2027
1646.79688	4263.14108
1645.10547	4345.14209
1643.41406	4719.31359
1641.72168	4937.33967
1640.02832	5302.06938
1638.33496	5933.94596
1636.6416	6359.47456
1634.94727	7403.73301
1633.25293	7630.08633
1631.55762	8016.25569
1629.86231	8708.11368
1628.16699	9444.93638
1626.4707	10427.40929
1624.77344	10599.66799
1623.07617	11700.31126
1621.37891	12124.62199
1619.68066	13122.8478
1617.98242	13832.02371
1616.2832	14531.27774
1614.58398	15233.94281
1612.88477	15836.07109
1611.18457	16850.76615
1609.4834	17020.41836
1607.7832	17894.66106
1606.08106	18345.42971
1604.37988	18744.26035
1602.67676	18779.58923
1600.97461	19481.22356
1599.27148	19822.34377
1597.56738	19679.72532
1595.86328	19995.61872
1594.15918	19844.19987
1592.4541	19950.34906
1590.74805	20517.37527
1589.04297	20182.40551
1587.33691	20105.94886
1585.62988	20061.9292
1583.92285	19889.52623
1582.21484	19461.79437
1580.50684	19248.36443
1578.79883	18946.33948
1577.08984	18548.2233
1575.38086	18125.63006
1573.6709	17825.11721
1571.95996	17699.22759
1570.25	17084.0789
1568.53906	16728.20818
1566.82715	15998.8168
1565.11523	15555.99674
1563.40332	14878.89493
1561.69043	14663.57235
1559.97656	14098.64795
1558.26269	13760.07436
1556.54883	13424.67618
1554.83398	13289.1608
1553.11914	13141.80949
1551.4043	12395.50909
1549.6875	12203.08469
1547.97168	11557.27068
1546.25488	11094.61191
1544.53711	10492.24989
1542.82031	9977.7577
1541.10156	9411.55874
1539.38281	9159.38195
1537.66406	8813.56731
1535.94434	8368.54525
1534.22461	8248.56038
1532.50488	8057.47041
1530.78418	7692.59704
1529.0625	7673.04626
1527.34082	7602.09175
1525.61914	7158.92076
1523.89648	7247.47104
1522.17383	6912.70037
1520.45019	6688.07209
1518.72656	6892.32361
1517.00195	6464.86015
1515.27734	6012.62161
1513.55176	6202.3129
1511.82617	5801.92038
1510.09961	5242.76999
1508.37402	4716.81611
1506.64648	4433.17385
1504.91894	4471.79532
1503.19141	4052.4052
1501.46289	3469.97954
1499.73438	3387.29368
1498.00488	2723.48131
1496.27539	2317.7618
1494.54492	2098.40775
1492.81445	1791.50975
1491.08398	1596.69231
1489.35254	1488.78546
1487.62012	964.07567
1485.88769	1040.24495
1484.15527	293.76178
1482.42188	843.09115
1480.68848	388.37479
1478.9541	574.6707
1477.21973	515.24231
1475.48438	41.7355
1473.74902	182.01452
1472.01269	-63.87715
1470.27637	-118.26788
1468.54004	227.74304
1466.80273	247.92694
1465.06445	193.08362
1463.32715	771.30889
1461.58789	839.97151
1459.84863	967.65359
1458.10938	1370.41577
1456.36914	1854.13497
1454.62891	1892.67092
1452.88867	2357.48017
1451.14648	2186.32216
1449.40527	1989.44999
1447.66309	1997.32408
1445.91992	2043.87555
1444.17676	1854.47047
1442.43359	1450.47987
1440.68945	1486.96133
1438.94531	912.8893
1437.20019	580.29283
1435.4541	752.21134
1433.70898	446.50794
1431.96191	260.49801
1430.21582	611.68514
1428.46875	184.81874
1426.7207	186.48303
1424.97266	421.54051
1423.22363	709.71425
1421.47461	749.71929
1419.72559	697.84158
1417.97559	774.44546
1416.22461	1159.3117
1414.47461	1087.91451
1412.72266	1332.00071
1410.9707	1719.85495
1409.21875	2279.77053
1407.46582	2421.32783
1405.71289	2692.80889
1403.95898	3096.84919
1402.20508	3344.83778
1400.45117	3826.93519
1398.69531	4458.71883
1396.94043	5396.56535
1395.18457	5877.18563
1393.42773	7628.70528
1391.6709	8501.24498
1389.91406	9895.07247
1388.15625	11732.07663
1386.39844	12279.53253
1384.63965	13691.44407
1382.87988	14132.46726
1381.12109	13702.84654
1379.36035	13225.64518
1377.60059	12982.82764
1375.83887	12271.75783
1374.07813	11382.80118
1372.31641	10960.71448
1370.55371	10594.92441
1368.79102	10435.71259
1367.02734	9918.05697
1365.26367	10183.46776
1363.5	9742.49624
1361.73535	9751.83154
1359.96973	9790.63573
1358.2041	9757.84339
1356.43848	9396.06353
1354.67188	9975.98792
1352.90527	9700.32512
1351.13769	9945.85813
1349.37012	10056.97267
1347.60156	10511.61103
1345.83301	10604.69634
1344.06348	11061.97582
1342.29394	11471.01816
1340.52344	11150.31126
1338.75293	11388.70969
1336.98144	11075.57461
1335.20996	11868.89115
1333.4375	11989.14568
1331.66504	12341.32562
1329.89258	12494.83495
1328.11914	12674.47834
1326.34473	12866.6356
1324.57031	12746.21978
1322.7959	12693.60889
1321.02051	12896.06479
1319.24414	13139.86141
1317.46875	13007.06655
1315.69141	12963.67315
1313.91406	12565.717
1312.13672	12381.86998
1310.3584	12032.52144
1308.58008	12107.54664
1306.80078	11451.72507
1305.02148	11314.96852
1303.24121	11465.82915
1301.46094	11272.45717
1299.67969	10735.12855
1297.89844	10684.61821
1296.11621	10090.07247
1294.33398	10074.91622
1292.55176	9298.77207
1290.76856	9543.2044
1288.98438	9355.62565
1287.20019	9358.48162
1285.41504	8681.21663
1283.62988	8404.18097
1281.84473	8095.20982
1280.05859	7796.6167
1278.27148	7854.56151
1276.48438	7440.80017
1274.69727	7380.68046
1272.90918	7217.53656
1271.12109	6807.68273
1269.33203	6889.47834
1267.54199	6233.49989
1265.75195	6080.65526
1263.96191	5879.59427
1262.1709	5590.01514
1260.37988	5268.44634
1258.58789	5150.72488
1256.7959	4760.6981
1255.00293	4543.06548
1253.20996	4457.33022
1251.41602	4506.09597
1249.62207	3899.50638
1247.82715	3912.76243
1246.03223	3783.7853
1244.23633	3837.46442
1242.44043	3954.66074
1240.64356	3287.66288
1238.84668	3731.32499
1237.04883	3257.86607
1235.25098	3119.71681
1233.45313	2979.86991
1231.6543	2492.75377
1229.85449	2576.39981
1228.05469	2395.80852
1226.25391	2137.70699
1224.45313	1813.71678
1222.65234	1394.45692
1220.84961	1499.70815
1219.04785	1299.11946
1217.24512	1031.8143
1215.44141	1186.02911
1213.63769	708.68524
1211.83398	1064.96292
1210.0293	853.13746
1208.22363	1035.65542
1206.41797	1199.36399
1204.61231	1692.93018
1202.80566	1516.66915
1200.99805	1733.42476
1199.19043	1506.56252
1197.38281	1631.63308
1195.57422	1608.30552
1193.76465	1134.77462
1191.95508	1302.4493
1190.14551	988.08091
1188.33496	1007.52136
1186.52441	908.95691
1184.71289	447.75577
1182.90039	682.79751
1181.08789	387.67241
1179.27539	256.63589
1177.46191	185.94667
1175.64844	105.56162
1173.83398	155.41923
1172.01856	157.50246
1170.20313	169.34181
1168.38769	97.15695
1166.57129	-36.83732
1164.75488	182.96953
1162.9375	135.76836
1161.11914	124.0243
1159.30078	469.28067
1157.48242	567.09498
1155.66309	918.38727
1153.84375	1022.38007
1152.02344	927.8463
1150.20313	1230.49783
1148.38184	1474.00723
1146.55957	1512.03946
1144.73731	1771.44312
1142.91504	1903.89225
1141.0918	1950.06302
1139.26856	2020.99469
1137.44434	1369.01393
1135.61914	1286.30672
1133.79394	1496.00619
1131.96875	1420.62801
1130.14258	1566.2842
1128.31641	937.18098
1126.48926	902.98405
1124.66113	347.74593
1122.83398	373.8172
1121.00488	225.28443
1119.17578	19.91857
1117.34668	182.76204
1115.5166	236.0101
1113.68555	28.80787
1111.85449	242.17426
1110.02344	179.32883
1108.19141	160.60409
1106.35938	323.56291
1104.52637	441.98512
1102.69238	508.89567
1100.8584	816.87659
1099.02441	683.55144
1097.18945	740.53713
1095.35352	1060.32331
1093.51758	1236.66254
1091.68164	1142.83496
1089.84473	1429.74123
1088.00684	1435.24022
1086.16894	1463.69292
1084.33106	1828.78404
1082.49219	1456.64009
1080.65234	1564.43613
1078.8125	1658.43626
1076.97168	1663.61771
1075.13086	1920.35142
1073.29004	2041.07817
1071.44824	2141.94306
1069.60547	1708.51895
1067.76269	1833.44114
1065.91894	1901.03454
1064.07519	1935.70298
1062.23047	1693.62826
1060.38574	1657.39102
1058.54102	2031.39461
1056.69434	2046.91266
1054.84863	2250.51303
1053.00098	2505.58517
1051.1543	2540.66644
1049.30566	2547.29336
1047.45801	2557.52837
1045.6084	2321.23899
1043.75977	2110.39332
1041.90918	1972.83016
1040.05859	1966.58189
1038.20801	1510.01719
1036.35644	1035.64502
1034.50488	853.11147
1032.65234	991.69632
1030.79981	929.1675
1028.94629	702.98479
1027.0918	656.4117
1025.23731	510.30976
1023.38281	798.23413
1021.52734	795.17615
1019.6709	683.13297
1017.81445	1073.06816
1015.95801	858.09974
1014.10059	1112.04347
1012.24219	1332.15239
1010.38379	1300.58099
1008.52539	1503.17322
1006.66602	1432.64217
1004.80566	1586.67844
1002.94531	1891.65718
1001.08398	2555.51224
999.22266	2207.48427
997.36035	2397.05143
995.49805	1984.3484
993.63477	1476.04573
991.77148	1329.9089
989.90723	1304.3569
988.04297	1454.38557
986.17773	1345.75457
984.3125	1111.23694
982.44629	1163.30552
980.5791	1145.41222
978.71191	1286.42643
976.84473	1376.32247
974.97656	1501.15614
973.10742	1665.17769
971.23828	1580.3897
969.36914	1752.19996
967.49902	1981.13173
965.62793	2366.73263
963.75684	2113.85145
961.88477	2419.45739
960.0127	2606.05344
958.13965	2658.31009
956.2666	2787.2543
954.39355	2758.75553
952.51855	2930.39978
950.64355	2924.92567
948.76855	3151.0714
946.89258	3037.45056
945.0166	3162.20484
943.13965	3219.58797
941.2627	3285.76394
939.38477	3524.99403
937.50586	3387.21114
935.62695	3181.3335
933.74707	2992.90734
931.86719	2588.59361
929.9873	2159.06378
928.10645	1935.79907
926.22461	1889.5886
924.34277	1669.42526
922.45996	1331.7902
920.57715	1125.85167
918.69336	1035.30882
916.80957	977.32542
914.9248	959.56482
913.03906	578.908
911.1543	508.62047
909.26758	538.14494
907.38086	199.03717
905.49414	193.85673
903.60645	141.95108
901.71777	407.47741
899.8291	399.88106
897.93945	400.85366
896.0498	282.84916
894.15918	517.63508
892.26855	513.58479
890.37695	766.08518
888.48535	1164.51465
886.59277	1522.86702
884.7002	1856.43241
882.80664	2731.9848
880.91211	3147.38283
879.01758	3323.45421
877.12305	3101.02887
875.22754	2918.60322
873.33105	2348.29198
871.43457	1895.21722
869.53711	1466.15921
867.63965	1249.01692
865.74121	877.18925
863.84277	749.29528
861.94336	751.8093
860.04395	393.32734
858.14355	670.00919
856.24219	588.30852
854.34082	431.56512
852.43945	243.76796
850.53711	424.38443
848.63379	158.47725
846.73047	266.73921
844.82617	46.91226
842.92188	133.57472
841.0166	157.15057
839.11133	-137.73455
837.20508	163.62813
835.29883	-91.01391
833.3916	5.99974
831.4834	73.77989
829.5752	61.84069
827.66699	-198.04639
825.75684	267.83345
823.84766	113.03647
821.9375	299.28219
820.02637	217.65527
818.11426	589.49784
816.20313	550.70885
814.29004	465.38275
812.37695	469.60087
810.46387	346.72605
808.5498	489.66842
806.63477	367.9577
804.71973	267.02832
802.80371	207.85519
800.8877	129.22515
798.9707	397.43577
797.05371	435.76276
795.13574	463.04906
793.21777	275.83422
791.29883	294.58908
789.37891	201.13029
787.45898	403.87996
785.53906	213.36681
783.61719	485.42136
781.69629	142.89604
779.77344	58.88648
777.85156	406.97781
775.92773	146.8932
774.00391	181.86653
772.08008	362.23782
770.15527	213.02166
768.22949	324.41619
766.30371	258.29948
764.37793	209.97145
762.4502	179.4505
760.52344	329.23855
758.59473	133.47664
756.66602	179.70065
754.7373	282.02214
752.80762	206.48618
750.87695	152.16763
748.94629	436.89097
747.01563	176.18759
745.08301	128.08982
743.15137	248.35479
741.21777	127.96648
739.28418	189.20339
737.35059	-81.41125
735.41602	92.00258
733.48047	65.70387
731.54492	78.8697
729.60938	202.82597
727.67188	210.22106
725.73535	130.14785
723.79688	2.49681
721.8584	107.40192
719.91992	28.74387
717.98047	153.48658
716.04004	260.35909
714.09961	137.43019
712.1582	136.61352
710.2168	87.34469
708.27441	239.44969
706.33203	113.95771
704.38867	422.84087
702.44434	648.37065
700.5	544.3697
698.55566	867.6691
696.61035	838.40389
694.66406	1293.88776
692.7168	1391.91376
690.77051	2055.92397
688.82227	2717.98231
686.87402	3326.90274
684.92578	4296.49542
682.97559	5492.93223
681.02637	6836.02383
679.0752	8506.00808
677.125	10058.7078
675.17285	10907.29462
673.2207	10951.88762
671.26855	10963.97935
669.31543	10485.43979
667.36133	10342.97003
665.40723	9636.94495
663.45215	9620.15879
661.49707	8731.86935
659.54102	7738.21322
657.58398	6456.93046
655.62695	5365.10208
653.66895	4450.19092
651.71094	3596.30515
649.75195	2777.08655
647.79297	2366.29995
645.83301	1989.76769
643.87305	1898.95541
641.91211	1978.04358
639.9502	2143.28662
637.98828	2476.40784
636.02539	3030.40608
634.0625	3008.0261
632.09863	3409.33721
630.13379	3621.38075
628.16895	3658.15463
626.20313	3494.40841
624.2373	3425.2388
622.27148	3224.23735
620.30371	2875.12414
618.33594	2646.58567
616.36816	2501.75421
614.39941	2366.26041
612.42969	2102.21225
610.45996	1863.00704
608.48926	1914.36698
606.51855	1609.73493
604.54688	1197.09018
602.57422	1388.44067
600.60156	1271.26002
598.62793	947.5768
596.6543	850.57863
594.67969	541.55834
592.70508	627.54475
590.72949	381.2879
588.75293	159.20296
586.77637	256.38099
584.79883	242.84433
582.82129	117.19771
580.84277	109.44464
578.86426	261.05402
576.88477	52.6546
574.9043	21.00528
572.92383	135.36712
570.94238	428.25128
568.96094	655.78666
566.97852	910.65479
564.99512	1215.00466
563.01172	1327.79251
561.02734	1542.60586
559.04297	1620.97469
557.05762	1432.30872
555.07227	1282.28155
553.08594	1027.35338
551.09863	626.88726
549.11133	168.05319