#Wave		#Intensity
1800.60156	0
1798.94824	75.98058
1797.2959	194.65578
1795.6416	-175.50206
1793.98828	100.92083
1792.33398	-182.85976
1790.67871	-139.76382
1789.02344	-50.97425
1787.36816	-348.80696
1785.71191	-51.76153
1784.05566	31.88047
1782.39844	-66.79664
1780.74121	287.28992
1779.08398	-77.93532
1777.42578	-21.75319
1775.76758	-28.98797
1774.1084	-81.68757
1772.44922	-219.91158
1770.78906	-69.64235
1769.12891	56.87181
1767.46875	92.6082
1765.80762	-126.36263
1764.14551	-201.26521
1762.48438	147.46188
1760.82129	521.91931
1759.15918	-176.1241
1757.49609	179.05795
1755.83203	171.62834
1754.16797	193.90788
1752.50391	-0.52582
1750.83887	-269.97758
1749.17383	71.44214
1747.50879	546.8512
1745.84277	222.49284
1744.17578	503.46196
1742.50879	309.79248
1740.8418	-275.55881
1739.17383	503.49154
1737.50586	314.36255
1735.83691	997.23955
1734.16797	1000.87594
1732.49902	750.37016
1730.8291	785.672
1729.15918	1126.46554
1727.48828	1158.42127
1725.81738	1377.50517
1724.14551	1079.39986
1722.47363	881.11324
1720.80078	1081.30359
1719.12891	1234.17753
1717.45508	541.99781
1715.78125	954.50094
1714.10742	1192.66427
1712.43359	801.59672
1710.75781	441.77218
1709.08301	575.06116
1707.40723	780.98092
1705.73144	491.07288
1704.05469	654.20854
1702.37695	387.09534
1700.70019	580.82768
1699.02246	83.36762
1697.34375	-99.82446
1695.66504	297.09577
1693.98633	485.78557
1692.30664	260.79462
1690.62695	-287.5696
1688.94629	61.88839
1687.26563	-167.89588
1685.58398	-72.10723
1683.90234	41.11975
1682.21973	258.57927
1680.53809	-126.07013
1678.85449	-238.62009
1677.1709	108.23026
1675.48731	-585.32352
1673.80371	-18.05427
1672.11816	89.52734
1670.43359	-122.12267
1668.74805	-51.11375
1667.06152	107.41652
1665.37598	133.06831
1663.68848	36.59497
1662.00195	357.47783
1660.31348	24.07199
1658.62598	385.30477
1656.9375	195.9208
1655.24805	672.1593
1653.55859	776.97026
1651.86914	638.37561
1650.17871	1250.41053
1648.48828	1392.15654
1646.79688	1569.46578
1645.10547	1518.42054
1643.41406	1564.95992
1641.72168	1451.98759
1640.02832	1709.18095
1638.33496	2067.74345
1636.6416	1906.2441
1634.94727	2857.48141
1633.25293	3127.04423
1631.55762	3220.76721
1629.86231	3313.16142
1628.16699	3726.31604
1626.4707	4168.30953
1624.77344	4268.35608
1623.07617	5100.79423
1621.37891	5253.04684
1619.68066	6160.74345
1617.98242	6371.03447
1616.2832	6680.76429
1614.58398	6877.98304
1612.88477	7311.45699
1611.18457	7772.02275
1609.4834	8042.98629
1607.7832	8257.38863
1606.08106	8909.72718
1604.37988	9197.17705
1602.67676	8902.37692
1600.97461	8951.17835
1599.27148	9518.63017
1597.56738	9646.55856
1595.86328	9795.1829
1594.15918	9832.06702
1592.4541	9952.95309
1590.74805	10337.88408
1589.04297	9986.44007
1587.33691	10368.12431
1585.62988	10425.15165
1583.92285	10818.11715
1582.21484	9899.90882
1580.50684	10148.01233
1578.79883	10095.34762
1577.08984	10215.17119
1575.38086	10407.41468
1573.6709	10105.94007
1571.95996	10621.53577
1570.25	10272.01559
1568.53906	9630.33525
1566.82715	9650.15296
1565.11523	8355.85738
1563.40332	8232.10087
1561.69043	8008.34827
1559.97656	7567.45504
1558.26269	7691.38473
1556.54883	7094.63603
1554.83398	7319.04098
1553.11914	7409.68421
1551.4043	7307.66337
1549.6875	7286.78968
1547.97168	6803.67119
1546.25488	7023.68681
1544.53711	6431.53707
1542.82031	5802.09501
1541.10156	6092.70634
1539.38281	6475.00387
1537.66406	6577.13147
1535.94434	6661.87106
1534.22461	6638.57809
1532.50488	7135.51624
1530.78418	7995.97783
1529.0625	9210.03902
1527.34082	9702.4277
1525.61914	10794.31051
1523.89648	11831.80465
1522.17383	13171.48694
1520.45019	14559.76168
1518.72656	16127.61975
1517.00195	16442.37887
1515.27734	18036.32027
1513.55176	19187.03382
1511.82617	19298.49475
1510.09961	19678.45439
1508.37402	20159.48043
1506.64648	19336.09241
1504.91894	19681.00126
1503.19141	18487.93095
1501.46289	17200.6458
1499.73438	16443.42444
1498.00488	15059.04944
1496.27539	13457.86194
1494.54492	11319.5247
1492.81445	9775.42965
1491.08398	9525.18942
1489.35254	8267.75517
1487.62012	6735.23304
1485.88769	6756.21025
1484.15527	5289.77047
1482.42188	5104.9124
1480.68848	4702.20179
1478.9541	4497.22197
1477.21973	3715.6357
1475.48438	3024.72392
1473.74902	2991.65296
1472.01269	2446.37089
1470.27637	2671.32825
1468.54004	2618.40231
1466.80273	3114.30367
1465.06445	2319.71334
1463.32715	3032.94039
1461.58789	2812.32776
1459.84863	3355.8079
1458.10938	3319.15231
1456.36914	4197.74996
1454.62891	4014.67184
1452.88867	4587.2288
1451.14648	4588.75647
1449.40527	4518.19983
1447.66309	4280.28902
1445.91992	4598.13961
1444.17676	3888.59599
1442.43359	3939.46774
1440.68945	3539.43518
1438.94531	3658.50061
1437.20019	2754.16272
1435.4541	2824.4456
1433.70898	2150.48141
1431.96191	1328.81149
1430.21582	1162.60926
1428.46875	870.36227
1426.7207	538.59318
1424.97266	738.995
1423.22363	425.90227
1421.47461	62.87588
1419.72559	-11.31986
1417.97559	59.83831
1416.22461	-84.15469
1414.47461	-343.56976
1412.72266	-139.21138
1410.9707	113.51301
1409.21875	1142.11625
1407.46582	1745.0457
1405.71289	2046.65654
1403.95898	3074.25582
1402.20508	4316.22848
1400.45117	5016.42998
1398.69531	6785.15817
1396.94043	8391.30139
1395.18457	10662.18421
1393.42773	15118.00126
1391.6709	19487.39319
1389.91406	25439.59501
1388.15625	33693.94658
1386.39844	40531.47262
1384.63965	48935.09241
1382.87988	55199.68095
1381.12109	58783.49866
1379.36035	58878.44137
1377.60059	57691.78512
1375.83887	53449.46741
1374.07813	46950.20179
1372.31641	40647.31897
1370.55371	35249.92054
1368.79102	29548.16533
1367.02734	25168.13668
1365.26367	21192.05856
1363.5	18217.10283
1361.73535	15919.81507
1359.96973	14236.63538
1358.2041	12278.56507
1356.43848	10616.35087
1354.67188	9620.00908
1352.90527	8384.28186
1351.13769	6976.03382
1349.37012	6611.35022
1347.60156	6113.17509
1345.83301	5311.72359
1344.06348	5364.06962
1342.29394	5253.67802
1340.52344	4433.95667
1338.75293	4080.13017
1336.98144	3468.26363
1335.20996	3474.63831
1333.4375	3032.72067
1331.66504	3299.43779
1329.89258	2846.40296
1328.11914	2700.05693
1326.34473	2680.48255
1324.57031	2158.86699
1322.7959	2063.39124
1321.02051	2278.70585
1319.24414	2323.14368
1317.46875	1936.97457
1315.69141	2321.15735
1313.91406	2696.95699
1312.13672	2355.61764
1310.3584	2282.6038
1308.58008	2618.60755
1306.80078	1820.93714
1305.02148	2362.45179
1303.24121	2673.48629
1301.46094	2688.93632
1299.67969	2607.56425
1297.89844	2404.26591
1296.11621	2408.91386
1294.33398	2552.40393
1292.55176	1909.08704
1290.76856	2757.40361
1288.98438	2519.29391
1287.20019	2915.83134
1285.41504	2466.69723
1283.62988	2360.91386
1281.84473	2626.0833
1280.05859	2132.71529
1278.27148	2695.07386
1276.48438	2532.54716
1274.69727	3242.02958
1272.90918	2793.35022
1271.12109	2980.60576
1269.33203	3007.14091
1267.54199	2862.87757
1265.75195	2061.02356
1263.96191	1988.21464
1262.1709	1848.57776
1260.37988	1275.17566
1258.58789	771.41166
1256.7959	398.33403
1255.00293	-8.03918
1253.20996	330.80465
1251.41602	532.31641
1249.62207	138.61375
1247.82715	544.09074
1246.03223	783.61585
1244.23633	1039.44829
1242.44043	1034.28032
1240.64356	916.1685
1238.84668	1916.52991
1237.04883	2041.58313
1235.25098	2209.70992
1233.45313	3023.59892
1231.6543	2678.75045
1229.85449	2734.21318
1228.05469	2365.13619
1226.25391	2553.82288
1224.45313	1997.3455
1222.65234	1280.55139
1220.84961	1253.0129
1219.04785	1190.19869
1217.24512	438.40597
1215.44141	657.0142
1213.63769	283.46869
1211.83398	270.5149
1210.0293	74.26525
1208.22363	194.18942
1206.41797	348.71924
1204.61231	807.10681
1202.80566	909.40833
1200.99805	429.93347
1199.19043	863.28813
1197.38281	-45.19078
1195.57422	-73.20657
1193.76465	-574.01566
1191.95508	-51.01535
1190.14551	-161.35673
1188.33496	147.15363
1186.52441	-234.03631
1184.71289	208.59025
1182.90039	-28.08015
1181.08789	-101.81167
1179.27539	515.61658
1177.46191	759.04008
1175.64844	917.03479
1173.83398	955.8324
1172.01856	1563.37903
1170.20313	1391.34534
1168.38769	2187.37106
1166.57129	2563.33492
1164.75488	2561.6121
1162.9375	2687.65491
1161.11914	3235.43193
1159.30078	4458.40296
1157.48242	5308.23531
1155.66309	6742.44007
1153.84375	7450.58655
1152.02344	8749.2747
1150.20313	10669.02275
1148.38184	11948.76429
1146.55957	12483.31507
1144.73731	13266.27731
1142.91504	13464.11194
1141.0918	12913.43095
1139.26856	11794.15491
1137.44434	10159.54749
1135.61914	9180.02861
1133.79394	8868.71936
1131.96875	7865.69007
1130.14258	6699.69007
1128.31641	5599.87106
1126.48926	5113.16826
1124.66113	4298.98369
1122.83398	3804.1305
1121.00488	3695.58134
1119.17578	2616.17054
1117.34668	2660.85201
1115.5166	2678.53707
1113.68555	2447.09127
1111.85449	2100.89547
1110.02344	2531.01819
1108.19141	2129.40296
1106.35938	2086.13896
1104.52637	2030.56116
1102.69238	1991.67607
1100.8584	2189.42119
1099.02441	1786.58899
1097.18945	1859.32776
1095.35352	2034.65979
1093.51758	2239.26136
1091.68164	2076.31018
1089.84473	1931.99703
1088.00684	2398.07825
1086.16894	2156.30742
1084.33106	2353.11162
1082.49219	2164.90654
1080.65234	2665.04195
1078.8125	2979.61357
1076.97168	3196.29749
1075.13086	3609.13636
1073.29004	3322.81734
1071.44824	4155.73564
1069.60547	3463.4749
1067.76269	3662.19527
1065.91894	4033.49638
1064.07519	3175.52112
1062.23047	2731.84306
1060.38574	2762.41175
1058.54102	3118.42281
1056.69434	3190.85445
1054.84863	2827.04846
1053.00098	2875.90393
1051.1543	2788.01526
1049.30566	3087.29326
1047.45801	3161.78772
1045.6084	2684.03609
1043.75977	2513.43909
1041.90918	2194.85901
1040.05859	2350.08574
1038.20801	1827.17021
1036.35644	1595.94186
1034.50488	1556.65231
1032.65234	1168.81311
1030.79981	1025.77291
1028.94629	637.43925
1027.0918	281.60665
1025.23731	315.3864
1023.38281	706.25281
1021.52734	389.30099
1019.6709	118.21393
1017.81445	517.9635
1015.95801	75.46989
1014.10059	-161.14095
1012.24219	-377.8704
1010.38379	-100.46957
1008.52539	184.89081
1006.66602	902.2791
1004.80566	1339.14986
1002.94531	2125.60706
1001.08398	3377.36943
999.22266	3186.57027
997.36035	3022.73011
995.49805	2584.54244
993.63477	1974.73564
991.77148	1091.86015
989.90723	759.91525
988.04297	449.5739
986.17773	-0.24312
984.3125	-60.03193
982.44629	-261.15334
980.5791	67.93758
978.71191	165.72036
976.84473	374.56527
974.97656	458.94385
973.10742	944.84095
971.23828	1231.52836
969.36914	1139.80587
967.49902	1381.88359
965.62793	1763.12871
963.75684	1995.95992
961.88477	2721.72652
960.0127	2766.0693
958.13965	3285.42542
956.2666	3727.27665
954.39355	3698.32874
952.51855	3828.73466
950.64355	4272.3359
948.76855	4212.71057
946.89258	4036.1331
945.0166	4367.23043
943.13965	4107.99443
941.2627	4300.45113
939.38477	5103.3678
937.50586	4961.74248
935.62695	4956.77991
933.74707	5438.15296
931.86719	5462.35152
929.9873	5213.3385
928.10645	4847.56214
926.22461	5603.8027
924.34277	4917.88505
922.45996	4146.32353
920.57715	3983.76005
918.69336	3584.55725
916.80957	2776.14156
914.9248	2373.61992
913.03906	2007.66468
911.1543	1408.7402
909.26758	1161.52942
907.38086	365.5376
905.49414	527.05502
903.60645	35.20722
901.71777	74.66398
899.8291	546.47819
897.93945	85.78472
896.0498	-296.57238
894.15918	70.24944
892.26855	123.29189
890.37695	-5.52495
888.48535	498.98633
886.59277	1420.5317
884.7002	1660.75712
882.80664	2538.78463
880.91211	3371.29749
879.01758	3840.18649
877.12305	3227.42737
875.22754	3048.04749
873.33105	2864.79261
871.43457	2133.18551
869.53711	1516.06018
867.63965	1579.21123
865.74121	1533.2747
863.84277	1061.77006
861.94336	1334.51559
860.04395	820.81344
858.14355	611.51302
856.24219	1005.86202
854.34082	1044.67037
852.43945	651.39645
850.53711	635.27507
848.63379	421.10275
846.73047	-95.67628
844.82617	178.48548
842.92188	139.42007
841.0166	-80.16326
839.11133	39.00763
837.20508	421.77263
835.29883	-150.1767
833.3916	-220.7395
831.4834	-303.7428
829.5752	-593.22481
827.66699	-611.59196
825.75684	-43.42201
823.84766	-49.69097
821.9375	-58.10004
820.02637	-132.95433
818.11426	469.18177
816.20313	642.42436
814.29004	548.65312
812.37695	522.09685
810.46387	212.21934
808.5498	454.42965
806.63477	494.83806
804.71973	58.80125
802.80371	216.90762
800.8877	47.75798
798.9707	311.17143
797.05371	-0.16318
795.13574	-127.5136
793.21777	12.87624
791.29883	141.39152
789.37891	-80.10885
787.45898	-244.11153
785.53906	-238.30401
783.61719	199.0539
781.69629	-87.43841
779.77344	-201.53203
777.85156	170.87512
775.92773	-96.96857
774.00391	149.16514
772.08008	226.50242
770.15527	-120.91893
768.22949	222.07166
766.30371	-11.26074
764.37793	405.77047
762.4502	511.3018
760.52344	951.50078
758.59473	640.46949
756.66602	739.10999
754.7373	310.91492
752.80762	-29.41579
750.87695	211.73224
748.94629	352.96818
747.01563	63.51014
745.08301	240.86595
743.15137	-37.93451
741.21777	303.62995
739.28418	187.59432
737.35059	68.43939
735.41602	90.39136
733.48047	54.35986
731.54492	-315.69089
729.60938	88.2716
727.67188	180.56429
725.73535	-203.02443
723.79688	-207.9589
721.8584	-458.81478
719.91992	-451.90979
717.98047	-221.62538
716.04004	77.03921
714.09961	-15.28306
712.1582	-18.43644
710.2168	-8.52254
708.27441	-90.60971
706.33203	-123.58693
704.38867	103.57571
702.44434	416.49732
700.5	503.55677
698.55566	781.50558
696.61035	1404.68274
694.66406	1763.80644
692.7168	2198.56181
690.77051	2829.97197
688.82227	4160.79977
686.87402	4845.09892
684.92578	6048.73108
682.97559	8885.16468
681.02637	10297.62431
679.0752	12351.25387
677.125	14466.93486
675.17285	14741.0221
673.2207	14386.00387
671.26855	13731.40882
669.31543	12681.48173
667.36133	11810.92054
665.40723	11001.49085
663.45215	10630.15556
661.49707	9505.4954
659.54102	8424.19593
657.58398	6790.57483
655.62695	5358.24248
653.66895	4354.2428
651.71094	3383.09241
649.75195	2268.43974
647.79297	1890.56474
645.83301	1381.44283
643.87305	1007.78618
641.91211	1748.7791
639.9502	1983.57825
637.98828	2176.90507
636.02539	3114.3844
634.0625	2970.48141
632.09863	3751.8499
630.13379	4298.03772
628.16895	3932.29098
626.20313	3772.52861
624.2373	3666.28544
622.27148	3026.56767
620.30371	2970.80921
618.33594	2469.75582
616.36816	2165.22441
614.39941	2176.38603
612.42969	1710.21464
610.45996	1540.21774
608.48926	1690.09274
606.51855	1355.61048
604.54688	1073.79326
602.57422	1348.19186
600.60156	673.1965
598.62793	961.04163
596.6543	556.0374
594.67969	503.06047
592.70508	190.03485
590.72949	221.33167
588.75293	193.43636
586.77637	-250.53131
584.79883	-233.87469
582.82129	-187.65279
580.84277	-343.71537
578.86426	65.43979
576.88477	58.6524
574.9043	1028.3892
572.92383	1743.99964
570.94238	2996.89873
568.96094	4164.6816
566.97852	5854.65231
564.99512	6955.61845
563.01172	7521.90296
561.02734	8435.6829
559.04297	9542.04488
557.05762	9046.09306
555.07227	7541.0566
553.08594	5568.85934
551.09863	2315.77454
549.11133	-16.46488