#Wave		#Intensity
1800.529297	-18.612278
1798.058594	-3.087871
1795.587891	-1.980019
1793.115234	37.213417
1790.642578	79.334549
1788.169922	-16.443537
1785.697266	-21.401554
1783.222656	-19.020617
1780.746094	24.997248
1778.269531	37.306274
1775.792969	-15.143364
1773.316406	61.762657
1770.837891	126.326363
1768.357422	103.307152
1765.878906	101.313553
1763.398438	99.306938
1760.916016	58.215961
1758.435547	16.277431
1755.951172	24.673538
1753.468750	-7.794131
1750.984375	30.200188
1748.498047	-11.658055
1746.013672	45.074364
1743.527344	-12.968274
1741.039063	65.634773
1738.550781	-1.415925
1736.062500	38.175331
1733.574219	-59.704086
1731.083984	-47.934586
1728.591797	-41.539803
1726.099609	21.483885
1723.607422	-4.743247
1721.115234	76.630295
1718.621094	38.876705
1716.126953	-12.060125
1713.630859	97.456795
1711.134766	-3.758326
1708.636719	53.457359
1706.140625	84.578964
1703.640625	60.698200
1701.142578	11.815653
1698.642578	89.332489
1696.140625	44.217270
1693.640625	107.563385
1691.138672	91.175095
1688.634766	61.788994
1686.130859	9.498032
1683.626953	-6.012739
1681.121094	-2.673286
1678.615234	15.550584
1676.109375	-4.985565
1673.601563	7.244356
1671.093750	9.547608
1668.583984	50.554909
1666.074219	-39.400955
1663.564453	34.382908
1661.052734	139.875214
1658.541016	183.893082
1656.027344	231.886139
1653.513672	243.255859
1651.000000	402.248627
1648.484375	385.964050
1645.968750	477.653046
1643.453125	610.930420
1640.935547	627.484009
1638.417969	650.060425
1635.898438	790.352478
1633.378906	938.577698
1630.859375	957.407654
1628.337891	1033.620605
1625.816406	1146.449951
1623.292969	1299.802490
1620.769531	1321.963623
1618.246094	1349.191284
1615.720703	1404.155762
1613.195313	1353.757202
1610.669922	1341.992310
1608.142578	1210.187378
1605.613281	1084.536133
1603.085938	1107.846191
1600.556641	1003.346313
1598.025391	942.392090
1595.494141	957.428772
1592.962891	947.091553
1590.429688	931.060425
1587.896484	1050.899048
1585.363281	1261.288452
1582.828125	1312.632568
1580.292969	1339.629028
1577.755859	1410.033081
1575.218750	1426.661133
1572.681641	1514.171021
1570.142578	1373.338257
1567.603516	1285.800049
1565.062500	1139.755737
1562.521484	1078.345459
1559.980469	1043.697998
1557.437500	917.283203
1554.894531	900.882568
1552.349609	729.150574
1549.804688	842.546997
1547.259766	744.890137
1544.712891	743.416321
1542.166016	613.210632
1539.619141	691.552551
1537.070313	606.997925
1534.519531	492.527374
1531.970703	490.738373
1529.417969	493.164551
1526.867188	405.175995
1524.314453	435.598511
1521.761719	474.137634
1519.207031	436.941376
1516.652344	520.956665
1514.095703	655.920044
1511.539063	756.081360
1508.982422	893.527710
1506.423828	802.481384
1503.865234	1006.694336
1501.306641	1019.488464
1498.746094	1046.237793
1496.185547	1034.436157
1493.623047	994.806824
1491.060547	832.160522
1488.496094	748.645081
1485.931641	564.550415
1483.367188	483.824890
1480.800781	311.312439
1478.234375	158.667389
1475.667969	173.289246
1473.099609	21.495026
1470.531250	-8.690191
1467.960938	138.821838
1465.390625	216.857132
1462.818359	261.307404
1460.246094	23.407467
1457.673828	61.826828
1455.099609	-15.521892
1452.525391	14.888371
1449.951172	-23.018900
1447.375000	-46.052837
1444.796875	45.300915
1442.220703	96.371597
1439.642578	112.991051
1437.062500	123.187935
1434.482422	247.603302
1431.902344	226.591476
1429.320313	448.993744
1426.738281	575.169861
1424.154297	550.264099
1421.570313	744.450012
1418.986328	750.989075
1416.400391	782.890442
1413.814453	935.437439
1411.226563	931.330811
1408.638672	932.351807
1406.050781	879.817810
1403.460938	967.058533
1400.871094	1110.304443
1398.279297	1367.166016
1395.687500	1520.413574
1393.095703	1589.346191
1390.501953	1457.873169
1387.908203	1370.919189
1385.312500	1349.557129
1382.716797	1380.286621
1380.119141	1427.583374
1377.521484	1282.441162
1374.923828	1116.574829
1372.324219	992.279968
1369.724609	805.114197
1367.125000	704.492004
1364.523438	660.667480
1361.919922	670.713867
1359.318359	589.163696
1356.712891	474.456512
1354.109375	371.522614
1351.503906	379.756409
1348.896484	251.607941
1346.291016	149.545044
1343.681641	28.694921
1341.074219	111.437378
1338.464844	74.128006
1335.853516	18.941429
1333.242188	89.875587
1330.630859	13.208168
1328.017578	120.734703
1325.404297	174.087936
1322.789063	195.231644
1320.173828	160.377426
1317.558594	239.952896
1314.941406	231.180588
1312.324219	263.497253
1309.705078	173.307816
1307.085938	116.620567
1304.466797	142.818756
1301.845703	89.371147
1299.224609	68.410187
1296.601563	126.440010
1293.978516	45.055752
1291.353516	160.306183
1288.728516	164.644608
1286.103516	244.987488
1283.476563	345.339935
1280.849609	387.953766
1278.220703	190.986603
1275.591797	144.862885
1272.962891	-2.420873
1270.332031	25.630066
1267.701172	-0.156830
1265.068359	-10.667561
1262.435547	10.142424
1259.800781	151.118652
1257.166016	297.777649
1254.531250	224.307648
1251.894531	197.268143
1249.257813	111.793533
1246.619141	146.343735
1243.980469	323.436218
1241.341797	433.517883
1238.701172	478.547607
1236.058594	566.995300
1233.417969	434.907288
1230.775391	433.929962
1228.130859	287.035400
1225.486328	110.151558
1222.839844	-54.327686
1220.195313	-7.905138
1217.546875	-57.396187
1214.900391	-21.267845
1212.250000	22.411995
1209.601563	195.759354
1206.951172	301.384277
1204.298828	242.607727
1201.648438	393.232483
1198.994141	562.562317
1196.341797	762.729797
1193.685547	937.461731
1191.031250	811.979736
1188.375000	666.880920
1185.718750	428.130371
1183.060547	269.140076
1180.400391	83.998985
1177.742188	134.850082
1175.082031	96.713600
1172.419922	0.544216
1169.757813	16.615080
1167.095703	32.603996
1164.431641	59.735943
1161.767578	69.010567
1159.101563	168.819290
1156.435547	184.415176
1153.767578	142.025726
1151.101563	128.470474
1148.431641	146.554764
1145.761719	75.891983
1143.091797	77.871216
1140.419922	85.315369
1137.748047	94.471321
1135.076172	56.888641
1132.402344	74.126053
1129.726563	120.056152
1127.052734	73.630333
1124.375000	96.854187
1121.699219	119.859779
1119.019531	126.869064
1116.341797	51.858456
1113.662109	81.694870
1110.982422	32.332302
1108.300781	18.071095
1105.617188	30.515535
1102.935547	2.790728
1100.251953	-42.784462
1097.566406	-33.859356
1094.880859	13.734881
1092.193359	97.183617
1089.507813	126.546516
1086.818359	121.349068
1084.128906	188.087097
1081.439453	241.520233
1078.750000	156.723404
1076.058594	280.749817
1073.365234	380.337280
1070.671875	310.341492
1067.978516	390.705048
1065.283203	456.823517
1062.587891	473.596741
1059.890625	551.877136
1057.193359	549.439514
1054.494141	592.782043
1051.794922	606.205383
1049.095703	548.234009
1046.394531	620.832886
1043.693359	631.250671
1040.990234	585.075439
1038.287109	651.819397
1035.582031	697.869751
1032.876953	635.795776
1030.169922	622.126221
1027.462891	552.864014
1024.755859	513.578613
1022.046875	436.216461
1019.337891	378.703979
1016.626953	411.762299
1013.916016	406.725159
1011.203125	445.341461
1008.490234	377.963470
1005.777344	472.607727
1003.062500	531.917542
1000.347656	542.171814
997.630859	483.252930
994.914063	385.467651
992.195313	432.982605
989.476563	402.214294
986.755859	259.367920
984.035156	293.751526
981.314453	311.243500
978.591797	310.948059
975.867188	394.374847
973.142578	355.797699
970.417969	390.876099
967.691406	342.433746
964.964844	551.160217
962.238281	484.627930
959.509766	384.932678
956.779297	425.443787
954.048828	441.885040
951.318359	558.277710
948.585938	558.533508
945.853516	648.686584
943.119141	510.786560
940.384766	626.729858
937.648438	611.257507
934.912109	624.660400
932.175781	545.033813
929.437500	533.429871
926.697266	541.617188
923.957031	562.327881
921.216797	506.535278
918.474609	453.334747
915.732422	441.785461
912.988281	396.528015
910.244141	1054.349487
907.500000	1351.571411
904.753906	1046.458130
902.005859	1039.693848
899.257813	281.707733
896.509766	177.308090
893.759766	129.116394
891.009766	33.904423
888.257813	49.197578
885.505859	-71.157684
882.751953	-5.956699
879.998047	-13.923744
877.242188	-20.860970
874.486328	-27.645124
871.730469	27.164768
868.972656	25.239828
866.214844	15.405741
863.455078	-45.626987
860.693359	27.136328
857.933594	24.386820
855.169922	32.746037
852.408203	124.334915
849.644531	211.696732
846.878906	173.275131
844.113281	176.675446
841.347656	252.478546
838.580078	233.279343
835.810547	260.403168
833.041016	246.608963
830.271484	251.279648
827.500000	248.354553
824.728516	328.586914
821.955078	265.617126
819.181641	285.821930
816.408203	359.520874
813.630859	270.469940
810.855469	321.072449
808.078125	287.967224
805.298828	224.126053
802.521484	169.904739
799.740234	195.170334
796.958984	102.866722
794.177734	73.922646
791.394531	70.703323
788.611328	169.217743
785.826172	46.561493
783.041016	45.321125
780.255859	105.503624
777.466797	85.017281
774.679688	158.066177
771.890625	180.830521
769.099609	206.902573
766.308594	200.576080
763.517578	121.737144
760.724609	13.249643
757.931641	41.796974
755.136719	78.931152
752.341797	70.282486
749.544922	43.490150
746.748047	-49.527569
743.949219	55.571732
741.150391	1.839318
738.349609	57.978714
735.548828	-9.074078
732.748047	54.940151
729.945313	62.417202
727.140625	19.595022
724.335938	48.996227
721.531250	29.805298
718.724609	55.204952
715.917969	23.096043
713.109375	-49.647850
710.300781	23.096943
707.490234	19.630161
704.679688	9.059762
701.867188	-13.070699
699.054688	-9.632761
696.240234	-17.856758
693.425781	117.018532
690.611328	68.471519
687.794922	82.413612
684.976563	104.819923
682.158203	127.665771
679.339844	80.241722
676.519531	199.197144
673.697266	152.448135
670.875000	302.737457
668.052734	323.464203
665.228516	436.920563
662.404297	501.043274
659.578125	476.192200
656.751953	441.686554
653.923828	419.519440
651.095703	470.379608
648.265625	357.443604
645.435547	429.217529
642.603516	315.255066
639.771484	286.501434
636.939453	285.737793
634.105469	289.215637
631.269531	225.792908
628.433594	121.888641
625.595703	200.505325
622.757813	192.125595
619.919922	233.712723
617.080078	196.373123
614.240234	325.690918
611.398438	350.810547
608.554688	322.735321
605.712891	239.884109
602.867188	247.742950
600.021484	271.988708
597.175781	277.774780
594.328125	225.068649
591.480469	191.070313
588.630859	156.757111
585.781250	123.257027
582.931641	32.328014
580.078125	3.068294
577.226563	-40.180878
574.373047	-8.047587
571.517578	-6.621614
568.662109	13.383329
565.804688	-15.570125
562.947266	21.213516
560.089844	75.427628
557.230469	13.551352
554.369141	21.754448
551.507813	-43.830803
548.646484	10.714086
