#Wave		#Intensity
1800.60156	205.21423
1798.94824	428.02586
1797.2959	383.78174
1795.6416	98.38971
1793.98828	-571.90761
1792.33398	-174.51138
1790.67871	-473.32576
1789.02344	-148.25201
1787.36816	-992.0775
1785.71191	10.80851
1784.05566	128.46285
1782.39844	0.53472
1780.74121	410.00184
1779.08398	70.54263
1777.42578	444.72032
1775.76758	1206.04848
1774.1084	267.83627
1772.44922	627.81257
1770.78906	1269.79276
1769.12891	1605.68497
1767.46875	1641.39625
1765.80762	1949.65974
1764.14551	2541.82805
1762.48438	2853.3709
1760.82129	3275.82773
1759.15918	2588.55126
1757.49609	3503.94926
1755.83203	3671.53664
1754.16797	3782.66981
1752.50391	3981.51817
1750.83887	3933.49513
1749.17383	4732.50371
1747.50879	5216.80421
1745.84277	5414.11849
1744.17578	5233.6038
1742.50879	4998.65379
1740.8418	4832.94472
1739.17383	5130.9621
1737.50586	4808.61066
1735.83691	5693.58193
1734.16797	5643.54861
1732.49902	5679.41985
1730.8291	6086.42692
1729.15918	5986.94783
1727.48828	6128.55694
1725.81738	6349.59897
1724.14551	6499.67555
1722.47363	5528.08696
1720.80078	5840.64633
1719.12891	6208.22364
1717.45508	5451.00302
1715.78125	5276.12634
1714.10742	5823.88304
1712.43359	5735.50585
1710.75781	4932.62653
1709.08301	4403.50897
1707.40723	4400.56384
1705.73144	5008.11517
1704.05469	4098.09924
1702.37695	4313.5857
1700.70019	4117.12229
1699.02246	3061.99534
1697.34375	3444.84861
1695.66504	2893.55555
1693.98633	2836.77341
1692.30664	2271.12324
1690.62695	1918.59071
1688.94629	1878.10829
1687.26563	1104.90164
1685.58398	1616.95745
1683.90234	1044.71096
1682.21973	1511.71576
1680.53809	512.17408
1678.85449	421.7074
1677.1709	66.6196
1675.48731	-552.35892
1673.80371	24.03304
1672.11816	-304.16119
1670.43359	-317.00386
1668.74805	-0.075
1667.06152	-184.94853
1665.37598	305.82563
1663.68848	-368.40019
1662.00195	903.96525
1660.31348	1079.46632
1658.62598	2409.41885
1656.9375	4298.08272
1655.24805	6515.19668
1653.55859	8567.38107
1651.86914	10239.89388
1650.17871	11926.61367
1648.48828	12943.64285
1646.79688	12968.76533
1645.10547	11098.45652
1643.41406	10268.12698
1641.72168	7433.05623
1640.02832	6950.60235
1638.33496	5238.19345
1636.6416	3949.53337
1634.94727	3000.99239
1633.25293	2278.33532
1631.55762	1053.96039
1629.86231	765.04425
1628.16699	175.40611
1626.4707	28.82877
1624.77344	-719.41793
1623.07617	287.04258
1621.37891	709.27341
1619.68066	2090.52134
1617.98242	2371.09759
1616.2832	3655.25169
1614.58398	4921.89992
1612.88477	6346.67906
1611.18457	7228.21394
1609.4834	6978.66073
1607.7832	7953.3058
1606.08106	8470.6447
1604.37988	9057.63797
1602.67676	9239.87101
1600.97461	8838.24908
1599.27148	9274.88892
1597.56738	8186.61621
1595.86328	7230.24668
1594.15918	5318.03118
1592.4541	3326.53966
1590.74805	2367.17194
1589.04297	354.15286
1587.33691	320.00705
1585.62988	145.65139
1583.92285	1294.4865
1582.21484	382.80087
1580.50684	261.51781
1578.79883	1348.83
1577.08984	2288.7497
1575.38086	1892.2959
1573.6709	2022.87355
1571.95996	1816.08528
1570.25	1087.40253
1568.53906	849.00529
1566.82715	348.97297
1565.11523	516.87047
1563.40332	364.64711
1561.69043	-113.11469
1559.97656	-729.36474
1558.26269	-121.75951
1556.54883	-549.86061
1554.83398	-688.23632
1553.11914	-15.64648
1551.4043	697.26988
1549.6875	1053.43906
1547.97168	1724.26924
1546.25488	2131.7505
1544.53711	2244.96347
1542.82031	2400.33568
1541.10156	2816.5885
1539.38281	3247.16366
1537.66406	4126.33204
1535.94434	3771.22122
1534.22461	3171.44953
1532.50488	3403.09296
1530.78418	3305.73735
1529.0625	3038.11655
1527.34082	2317.78461
1525.61914	1543.96066
1523.89648	1417.74532
1522.17383	2539.40019
1520.45019	3054.59068
1518.72656	4297.69604
1517.00195	6086.0301
1515.27734	9144.80191
1513.55176	11366.96449
1511.82617	11954.84309
1510.09961	13425.13881
1508.37402	13461.8966
1506.64648	13406.82697
1504.91894	13652.06924
1503.19141	11548.00828
1501.46289	9537.89177
1499.73438	8496.14309
1498.00488	6529.50703
1496.27539	4781.20566
1494.54492	2130.23134
1492.81445	1102.47885
1491.08398	1462.6602
1489.35254	768.7818
1487.62012	55.88022
1485.88769	888.44204
1484.15527	-631.35836
1482.42188	649.83408
1480.68848	-151.11188
1478.9541	189.4641
1477.21973	223.42106
1475.48438	-202.83825
1473.74902	852.32425
1472.01269	295.31315
1470.27637	960.22667
1468.54004	1664.54075
1466.80273	1546.68922
1465.06445	460.84996
1463.32715	1437.96685
1461.58789	450.63161
1459.84863	4.02412
1458.10938	-706.91399
1456.36914	25.51582
1454.62891	-96.70153
1452.88867	-45.86054
1451.14648	262.61241
1449.40527	-265.36016
1447.66309	160.87931
1445.91992	-749.59679
1444.17676	-256.68674
1442.43359	261.82054
1440.68945	422.64844
1438.94531	387.65937
1437.20019	687.33784
1435.4541	1175.64406
1433.70898	1408.16643
1431.96191	1424.80468
1430.21582	1950.85237
1428.46875	2199.46212
1426.7207	1910.41025
1424.97266	3416.95696
1423.22363	3714.08656
1421.47461	5303.02069
1419.72559	5558.9828
1417.97559	6557.28486
1416.22461	8250.62212
1414.47461	7469.98014
1412.72266	7855.90682
1410.9707	8264.50242
1409.21875	9415.40476
1407.46582	9593.14043
1405.71289	9576.72967
1403.95898	9439.63638
1402.20508	10077.85468
1400.45117	9784.76379
1398.69531	11178.36809
1396.94043	11286.55828
1395.18457	11300.42443
1393.42773	12334.60266
1391.6709	12175.43906
1389.91406	14021.39689
1388.15625	15206.02207
1386.39844	15536.96033
1384.63965	16977.24615
1382.87988	18404.10264
1381.12109	18515.70492
1379.36035	18270.45404
1377.60059	21134.60508
1375.83887	23065.05797
1374.07813	25066.87559
1372.31641	27364.44621
1370.55371	31805.40234
1368.79102	34972.53785
1367.02734	38279.6318
1365.26367	43316.76727
1363.5	46650.30398
1361.73535	47837.05172
1359.96973	48577.96125
1358.2041	47744.91422
1356.43848	44878.97531
1354.67188	46174.93945
1352.90527	45532.05891
1351.13769	43635.28148
1349.37012	41706.57586
1347.60156	42451.60008
1345.83301	39952.86012
1344.06348	39775.6234
1342.29394	39042.60856
1340.52344	36940.74891
1338.75293	36173.23172
1336.98144	34363.55672
1335.20996	34184.93203
1333.4375	34272.81457
1331.66504	34030.51066
1329.89258	33445.92481
1328.11914	33839.11617
1326.34473	34638.03492
1324.57031	34735.55203
1322.7959	35899.96676
1321.02051	36460.40836
1319.24414	36371.46023
1317.46875	36582.21246
1315.69141	36665.09438
1313.91406	37480.01906
1312.13672	35689.04719
1310.3584	35292.45481
1308.58008	34400.02289
1306.80078	33296.07586
1305.02148	31859.22797
1303.24121	31290.09434
1301.46094	30132.56531
1299.67969	29558.63039
1297.89844	28923.35168
1296.11621	27135.14344
1294.33398	27465.59074
1292.55176	26071.45242
1290.76856	26066.37797
1288.98438	26263.8682
1287.20019	24604.78535
1285.41504	23592.17602
1283.62988	23364.48269
1281.84473	22410.15328
1280.05859	21492.12269
1278.27148	21788.75426
1276.48438	19884.56572
1274.69727	20960.82844
1272.90918	20531.97686
1271.12109	19337.88199
1269.33203	18455.96689
1267.54199	17728.27137
1265.75195	17137.29445
1263.96191	16598.90162
1262.1709	16405.63928
1260.37988	16394.49861
1258.58789	14971.96231
1256.7959	15323.47769
1255.00293	13795.3241
1253.20996	13449.15633
1251.41602	13916.72215
1249.62207	13721.69777
1247.82715	14186.22803
1246.03223	13911.77566
1244.23633	14363.14113
1242.44043	14439.43019
1240.64356	13150.77627
1238.84668	14674.54201
1237.04883	13735.61807
1235.25098	13976.08734
1233.45313	15115.96529
1231.6543	13668.25606
1229.85449	13857.98941
1228.05469	13827.62883
1226.25391	13404.81269
1224.45313	14062.16478
1222.65234	13205.49029
1220.84961	13865.67984
1219.04785	14724.05977
1217.24512	12787.0534
1215.44141	14094.25049
1213.63769	14357.35916
1211.83398	14891.90186
1210.0293	16160.09309
1208.22363	17586.14238
1206.41797	18716.55557
1204.61231	21144.53742
1202.80566	23455.44387
1200.99805	23758.77656
1199.19043	25352.32957
1197.38281	26746.31039
1195.57422	28086.58617
1193.76465	28617.09785
1191.95508	29066.84648
1190.14551	28702.72125
1188.33496	29303.33273
1186.52441	26890.32938
1184.71289	26040.26988
1182.90039	24892.3016
1181.08789	22557.01711
1179.27539	21549.96949
1177.46191	19890.79189
1175.64844	18285.82014
1173.83398	16000.09277
1172.01856	14769.84182
1170.20313	12482.35365
1168.38769	12699.55231
1166.57129	11292.75369
1164.75488	10225.09934
1162.9375	8194.56442
1161.11914	7887.54648
1159.30078	7351.2196
1157.48242	6754.82862
1155.66309	6591.62048
1153.84375	5087.21585
1152.02344	3656.0475
1150.20313	4262.58492
1148.38184	3628.49669
1146.55957	3976.53662
1144.73731	3363.78779
1142.91504	3877.29101
1141.0918	3989.67987
1139.26856	3532.72931
1137.44434	3255.05435
1135.61914	2621.73116
1133.79394	3334.9576
1131.96875	3396.66776
1130.14258	3819.29656
1128.31641	3051.5665
1126.48926	3402.28455
1124.66113	2225.09156
1122.83398	2250.12067
1121.00488	1870.31865
1119.17578	1835.66496
1117.34668	1566.25106
1115.5166	1231.93308
1113.68555	-320.72401
1111.85449	60.38282
1110.02344	280.35686
1108.19141	-379.99524
1106.35938	-94.85537
1104.52637	493.11777
1102.69238	-746.79586
1100.8584	-615.73894
1099.02441	-447.16165
1097.18945	273.51759
1095.35352	123.66485
1093.51758	688.08928
1091.68164	496.96133
1089.84473	109.34624
1088.00684	905.0233
1086.16894	822.63034
1084.33106	837.3153
1082.49219	-276.04626
1080.65234	224.41133
1078.8125	77.98383
1076.97168	-135.247
1075.13086	516.98967
1073.29004	185.3314
1071.44824	69.68196
1069.60547	-281.44854
1067.76269	226.78546
1065.91894	138.45443
1064.07519	437.48255
1062.23047	371.64105
1060.38574	315.33719
1058.54102	815.95221
1056.69434	166.53495
1054.84863	-216.58209
1053.00098	410.39278
1051.1543	170.01131
1049.30566	-490.5539
1047.45801	55.08978
1045.6084	-350.85378
1043.75977	110.96314
1041.90918	1.56703
1040.05859	927.0743
1038.20801	1228.82346
1036.35644	12.52658
1034.50488	-48.93764
1032.65234	-1151.58348
1030.79981	-309.43186
1028.94629	-86.94737
1027.0918	137.40775
1025.23731	414.36454
1023.38281	977.24351
1021.52734	821.3645
1019.6709	300.60582
1017.81445	812.84719
1015.95801	1081.61671
1014.10059	1551.30609
1012.24219	1124.11895
1010.38379	-121.58765
1008.52539	793.61366
1006.66602	373.65483
1004.80566	-46.15795
1002.94531	-241.56997
1001.08398	731.28811
999.22266	-260.03585
997.36035	-518.05599
995.49805	-112.44785
993.63477	-161.98806
991.77148	385.90645
989.90723	-510.86313
988.04297	954.9931
986.17773	150.47365
984.3125	131.42861
982.44629	209.564
980.5791	445.28568
978.71191	63.83107
976.84473	890.03212
974.97656	808.49118
973.10742	681.25441
971.23828	625.85117
969.36914	1229.52267
967.49902	1414.71145
965.62793	2177.97352
963.75684	1557.12513
961.88477	2609.02626
960.0127	2515.36575
958.13965	1898.61651
956.2666	2375.41408
954.39355	2943.60763
952.51855	2019.58374
950.64355	1644.50949
948.76855	2823.42775
946.89258	2052.75995
945.0166	2726.77351
943.13965	2557.497
941.2627	1447.05109
939.38477	3073.42824
937.50586	2644.12107
935.62695	2486.86332
933.74707	2970.34818
931.86719	2543.69606
929.9873	2567.42796
928.10645	1740.17859
926.22461	2792.34611
924.34277	2226.64072
922.45996	1980.97271
920.57715	2013.44693
918.69336	2197.26804
916.80957	1748.01883
914.9248	1185.64931
913.03906	1006.20928
911.1543	176.21735
909.26758	1084.77648
907.38086	-84.20498
905.49414	-203.56842
903.60645	328.59183
901.71777	898.68246
899.8291	855.56653
897.93945	1319.0079
896.0498	69.01273
894.15918	328.48263
892.26855	483.42495
890.37695	-227.43713
888.48535	-72.04801
886.59277	-253.06801
884.7002	-529.85838
882.80664	-246.15583
880.91211	181.80593
879.01758	546.96135
877.12305	-614.14164
875.22754	599.23086
873.33105	994.94627
871.43457	-101.16847
869.53711	80.49462
867.63965	591.57331
865.74121	256.65456
863.84277	-564.95227
861.94336	183.79043
860.04395	-330.6105
858.14355	17.71919
856.24219	876.53433
854.34082	755.41968
852.43945	1171.19945
850.53711	515.51926
848.63379	480.86423
846.73047	140.42735
844.82617	1537.72602
842.92188	1302.53438
841.0166	971.1297
839.11133	1106.66814
837.20508	1231.45305
835.29883	1817.75933
833.3916	2004.85841
831.4834	2564.39024
829.5752	2443.81737
827.66699	2006.96882
825.75684	2309.05151
823.84766	2641.40974
821.9375	1934.89719
820.02637	1301.90561
818.11426	2057.12334
816.20313	2151.49091
814.29004	962.17942
812.37695	2591.94705
810.46387	1891.83124
808.5498	2733.70504
806.63477	2710.71804
804.71973	2138.1211
802.80371	3217.45676
800.8877	3127.93954
798.9707	3718.48579
797.05371	3093.59808
795.13574	2291.43781
793.21777	3539.59717
791.29883	3618.66432
789.37891	4294.88903
787.45898	4737.60984
785.53906	5538.35769
783.61719	6775.20334
781.69629	7117.04971
779.77344	8224.63277
777.85156	10640.61879
775.92773	11660.77459
774.00391	13861.35352
772.08008	14017.95281
770.15527	12600.05537
768.22949	12103.70397
766.30371	9252.03973
764.37793	6519.18032
762.4502	4649.04686
760.52344	3741.73981
758.59473	2639.45452
756.66602	2336.21119
754.7373	1727.02872
752.80762	418.61873
750.87695	1205.57883
748.94629	1183.89881
747.01563	914.63726
745.08301	178.70382
743.15137	143.73728
741.21777	740.91791
739.28418	132.76351
737.35059	-343.09856
735.41602	-396.54762
733.48047	228.13387
731.54492	-664.32777
729.60938	699.51918
727.67188	1079.46247
725.73535	66.48797
723.79688	1265.65993
721.8584	20.02859
719.91992	-37.40391
717.98047	1318.7638
716.04004	1323.45927
714.09961	1162.81612
712.1582	1236.1156
710.2168	1185.98584
708.27441	2094.75692
706.33203	2278.7946
704.38867	2124.49689
702.44434	2694.09102
700.5	1535.91401
698.55566	987.13486
696.61035	1000.39186
694.66406	1112.45695
692.7168	626.91656
690.77051	108.19353
688.82227	1618.08133
686.87402	1481.59419
684.92578	1363.13589
682.97559	2743.2947
681.02637	2872.67142
679.0752	2884.64695
677.125	3718.5024
675.17285	3834.92413
673.2207	3507.79416
671.26855	3659.74906
669.31543	2778.85156
667.36133	3587.84385
665.40723	3874.76301
663.45215	5204.82498
661.49707	5481.79857
659.54102	4992.09108
657.58398	4368.19482
655.62695	3206.35301
653.66895	2654.53176
651.71094	1989.75364
649.75195	1974.57858
647.79297	2171.43235
645.83301	1962.30711
643.87305	773.17904
641.91211	1585.58465
639.9502	784.79597
637.98828	1276.1789
636.02539	2569.58989
634.0625	1014.55302
632.09863	510.24755
630.13379	359.62783
628.16895	-518.31454
626.20313	-277.50116
624.2373	173.4035
622.27148	-239.18069
620.30371	866.82263
618.33594	1341.21078
616.36816	4462.09559
614.39941	9832.27588
612.42969	17983.87541
610.45996	17330.10522
608.48926	11308.40772
606.51855	7051.51186
604.54688	4252.78055
602.57422	2777.75706
600.60156	2159.84334
598.62793	2428.94147
596.6543	2112.97678
594.67969	2379.25975
592.70508	2130.16597
590.72949	1064.91387
588.75293	664.45366
586.77637	1354.19577
584.79883	207.86493
582.82129	1023.64841
580.84277	769.98182
578.86426	1759.93807
576.88477	859.7662
574.9043	1163.0962
572.92383	417.15186
570.94238	1173.13598
568.96094	-164.69097
566.97852	-34.34484
564.99512	-247.86878
563.01172	-372.33731
561.02734	1008.33261
559.04297	1560.37757
557.05762	1903.39211
555.07227	2258.03966
553.08594	1488.12475
551.09863	238.24984
549.11133	26.72079