#Wave		#Intensity
1800.60156	1E-6
1798.94824	148.93155
1797.2959	21.60654
1795.6416	159.9216
1793.98828	-762.04925
1792.33398	-705.40552
1790.67871	-586.86452
1789.02344	-120.12051
1787.36816	-921.74533
1785.71191	-1059.70853
1784.05566	-849.5744
1782.39844	-1047.00387
1780.74121	-246.20001
1779.08398	-927.2355
1777.42578	-155.48524
1775.76758	-246.34581
1774.1084	-781.1929
1772.44922	-721.9548
1770.78906	-498.872
1769.12891	-115.68695
1767.46875	-1.97784
1765.80762	-643.87978
1764.14551	-16.65744
1762.48438	-249.34508
1760.82129	-592.95752
1759.15918	-703.32471
1757.49609	397.98868
1755.83203	-19.07294
1754.16797	66.46765
1752.50391	-565.43504
1750.83887	-227.54408
1749.17383	172.97879
1747.50879	1544.68918
1745.84277	991.52145
1744.17578	1417.84384
1742.50879	1024.18918
1740.8418	163.39267
1739.17383	734.67209
1737.50586	1242.655
1735.83691	2075.12668
1734.16797	2784.18161
1732.49902	1829.00559
1730.8291	1526.41452
1729.15918	2060.77072
1727.48828	1878.20139
1725.81738	2219.01633
1724.14551	2561.22971
1722.47363	2809.59689
1720.80078	2232.97067
1719.12891	2944.46506
1717.45508	2012.45285
1715.78125	1851.67185
1714.10742	2665.33469
1712.43359	1434.03964
1710.75781	2284.52487
1709.08301	1519.36386
1707.40723	1145.48313
1705.73144	778.06479
1704.05469	812.05795
1702.37695	585.01401
1700.70019	758.18161
1699.02246	-344.50829
1697.34375	-173.05646
1695.66504	55.60486
1693.98633	196.23795
1692.30664	-231.52013
1690.62695	-1492.18436
1688.94629	-597.93349
1687.26563	-169.13667
1685.58398	-1012.69571
1683.90234	-157.03085
1682.21973	-66.71313
1680.53809	-571.77463
1678.85449	-877.81894
1677.1709	-518.38925
1675.48731	-1200.31351
1673.80371	-422.61958
1672.11816	-390.49675
1670.43359	805.27097
1668.74805	436.38791
1667.06152	161.34464
1665.37598	770.77426
1663.68848	1150.35324
1662.00195	1434.11643
1660.31348	970.85373
1658.62598	2451.17966
1656.9375	3103.85324
1655.24805	3864.41721
1653.55859	4299.93674
1651.86914	4634.89084
1650.17871	5947.62522
1648.48828	6893.24973
1646.79688	8386.31027
1645.10547	10075.1218
1643.41406	11640.37473
1641.72168	12206.67258
1640.02832	14474.13645
1638.33496	16955.24191
1636.6416	18506.2673
1634.94727	22658.26145
1633.25293	24722.32395
1631.55762	28446.01535
1629.86231	32226.25754
1628.16699	36616.76144
1626.4707	42007.44113
1624.77344	44426.51926
1623.07617	50533.37473
1621.37891	53638.23019
1619.68066	60377.39816
1617.98242	62675.03098
1616.2832	66644.83957
1614.58398	70340.10519
1612.88477	73597.15988
1611.18457	77243.69894
1609.4834	80617.78488
1607.7832	84193.23801
1606.08106	87215.49582
1604.37988	90347.35519
1602.67676	91524.15988
1600.97461	94496.39426
1599.27148	97205.28488
1597.56738	98116.55832
1595.86328	99770.12863
1594.15918	101100.65988
1592.4541	100774.8552
1590.74805	101428.13645
1589.04297	100768.71457
1587.33691	101332.01926
1585.62988	101481.77707
1583.92285	102920.90207
1582.21484	101086.96457
1580.50684	101024.05832
1578.79883	99333.62082
1577.08984	98812.90988
1575.38086	96075.98801
1573.6709	93817.21457
1571.95996	90443.48801
1570.25	84510.83957
1568.53906	79271.86301
1566.82715	73454.56613
1565.11523	66972.45676
1563.40332	62370.83566
1561.69043	57701.57004
1559.97656	52447.37082
1558.26269	48621.42941
1556.54883	44595.76535
1554.83398	40816.2341
1553.11914	39235.68723
1551.4043	36315.21457
1549.6875	34497.73801
1547.97168	32103.09934
1546.25488	30210.4802
1544.53711	28445.46848
1542.82031	27302.67941
1541.10156	25043.47434
1539.38281	24755.27512
1537.66406	24546.2634
1535.94434	24158.4841
1534.22461	23315.72629
1532.50488	22934.58566
1530.78418	23166.51535
1529.0625	24348.11301
1527.34082	23768.5173
1525.61914	25505.08957
1523.89648	25566.23996
1522.17383	26559.03684
1520.45019	28299.15207
1518.72656	29597.36105
1517.00195	30310.94895
1515.27734	31640.15988
1513.55176	33210.57785
1511.82617	33238.6716
1510.09961	32541.99191
1508.37402	32331.28879
1506.64648	30862.69895
1504.91894	31066.41379
1503.19141	27930.47629
1501.46289	25726.18527
1499.73438	24035.16379
1498.00488	20990.71262
1496.27539	18255.23605
1494.54492	14397.79074
1492.81445	11691.22434
1491.08398	10711.42551
1489.35254	8907.20285
1487.62012	5126.09445
1485.88769	4929.37814
1484.15527	2592.10788
1482.42188	3485.92722
1480.68848	2127.61472
1478.9541	2265.03586
1477.21973	1623.1467
1475.48438	251.30075
1473.74902	541.75681
1472.01269	-25.64337
1470.27637	1125.22446
1468.54004	1605.96323
1466.80273	3169.88913
1465.06445	2273.97189
1463.32715	5668.73752
1461.58789	5009.8381
1459.84863	5728.31076
1458.10938	6967.0173
1456.36914	8526.58371
1454.62891	9305.04953
1452.88867	10831.94699
1451.14648	11908.36789
1449.40527	12535.97238
1447.66309	12543.58664
1445.91992	11803.0007
1444.17676	9969.02902
1442.43359	8763.2966
1440.68945	7545.64963
1438.94531	4608.88156
1437.20019	2762.57907
1435.4541	2567.90305
1433.70898	852.91733
1431.96191	-740.01797
1430.21582	-131.36307
1428.46875	-1546.90836
1426.7207	-1097.02487
1424.97266	-149.22147
1423.22363	-173.51724
1421.47461	214.51273
1419.72559	923.36655
1417.97559	1675.31345
1416.22461	4860.0925
1414.47461	4191.11301
1412.72266	7078.96408
1410.9707	9056.05344
1409.21875	13020.49191
1407.46582	15066.71945
1405.71289	17340.77121
1403.95898	17447.01535
1402.20508	19777.71848
1400.45117	21948.2634
1398.69531	25123.6677
1396.94043	28534.1091
1395.18457	35924.57785
1393.42773	47014.05832
1391.6709	57856.47238
1389.91406	72007.08957
1388.15625	87318.61301
1386.39844	97677.55832
1384.63965	108429.83176
1382.87988	113961.22238
1381.12109	113752.03488
1379.36035	108256.82395
1377.60059	102299.65988
1375.83887	93528.16769
1374.07813	82782.54269
1372.31641	75538.03488
1370.55371	68388.20676
1368.79102	62321.58176
1367.02734	57365.62863
1365.26367	54936.74191
1363.5	53270.05441
1361.73535	51770.92941
1359.96973	51198.15207
1358.2041	50673.65988
1356.43848	50085.96066
1354.67188	50589.60129
1352.90527	50137.44504
1351.13769	50646.28098
1349.37012	51356.08566
1347.60156	53235.53098
1345.83301	53199.20676
1344.06348	54202.74973
1342.29394	56609.61691
1340.52344	56194.70285
1338.75293	56730.22238
1336.98144	56130.62082
1335.20996	57790.94113
1333.4375	58618.17551
1331.66504	59549.82785
1329.89258	57965.19894
1328.11914	59451.58957
1326.34473	60303.67941
1324.57031	60152.7966
1322.7959	60078.5466
1321.02051	59766.78879
1319.24414	61747.24973
1317.46875	60511.55051
1315.69141	61284.32004
1313.91406	60668.94504
1312.13672	58620.27707
1310.3584	58674.03098
1308.58008	57936.0466
1306.80078	56430.89426
1305.02148	56667.84738
1303.24121	55321.96457
1301.46094	53872.57004
1299.67969	52508.6091
1297.89844	50688.97629
1296.11621	48587.41769
1294.33398	48735.43332
1292.55176	45522.30441
1290.76856	45890.34738
1288.98438	44927.28488
1287.20019	43236.91379
1285.41504	41828.67941
1283.62988	40664.58957
1281.84473	40521.14035
1280.05859	38361.37082
1278.27148	38213.29269
1276.48438	35641.62473
1274.69727	36558.64816
1272.90918	35075.19894
1271.12109	32787.18332
1269.33203	32281.46848
1267.54199	30367.34348
1265.75195	28282.51926
1263.96191	25836.61887
1262.1709	25367.32004
1260.37988	23342.28684
1258.58789	22417.13449
1256.7959	21008.48215
1255.00293	18719.60129
1253.20996	18914.2048
1251.41602	18629.42941
1249.62207	16978.74777
1247.82715	17351.53293
1246.03223	15550.16672
1244.23633	16428.59934
1242.44043	16859.7927
1240.64356	15226.80539
1238.84668	17050.06613
1237.04883	16946.68332
1235.25098	16818.11691
1233.45313	17304.07004
1231.6543	15873.98313
1229.85449	14945.46945
1228.05469	13523.3425
1226.25391	12978.7468
1224.45313	12316.7302
1222.65234	10768.8552
1220.84961	10104.95969
1219.04785	9572.40891
1217.24512	7466.97727
1215.44141	8095.36984
1213.63769	6713.37912
1211.83398	6720.45578
1210.0293	5491.38937
1208.22363	6047.96066
1206.41797	6125.70725
1204.61231	6940.98557
1202.80566	6693.34982
1200.99805	6078.11154
1199.19043	6748.45822
1197.38281	4379.13498
1195.57422	4416.52463
1193.76465	3194.68601
1191.95508	3794.1135
1190.14551	2040.87741
1188.33496	2115.2673
1186.52441	785.89865
1184.71289	612.13883
1182.90039	680.61935
1181.08789	-947.50217
1179.27539	-584.45741
1177.46191	-526.12959
1175.64844	-609.1004
1173.83398	-517.44092
1172.01856	180.91238
1170.20313	-229.268
1168.38769	752.76474
1166.57129	1646.82907
1164.75488	1733.30148
1162.9375	2648.96872
1161.11914	2989.12253
1159.30078	4404.21164
1157.48242	7124.75852
1155.66309	9147.45383
1153.84375	10790.10031
1152.02344	13016.24875
1150.20313	15914.13645
1148.38184	17976.66965
1146.55957	19030.91379
1144.73731	19954.78879
1142.91504	20509.32004
1141.0918	19536.75949
1139.26856	17378.15988
1137.44434	14495.98898
1135.61914	12320.99191
1133.79394	10353.09152
1131.96875	8847.13645
1130.14258	6457.06174
1128.31641	4603.83225
1126.48926	4179.83322
1124.66113	2636.05173
1122.83398	2499.73435
1121.00488	2189.23825
1119.17578	607.06455
1117.34668	534.75638
1115.5166	618.74277
1113.68555	-578.9577
1111.85449	-18.10596
1110.02344	116.4148
1108.19141	-385.60218
1106.35938	-199.00812
1104.52637	537.20755
1102.69238	171.13498
1100.8584	1471.82492
1099.02441	1666.18503
1097.18945	2660.44162
1095.35352	3361.8132
1093.51758	4175.83859
1091.68164	5209.49924
1089.84473	5389.16672
1088.00684	6867.47092
1086.16894	7226.1716
1084.33106	7919.44406
1082.49219	8668.18723
1080.65234	8976.84641
1078.8125	9508.71262
1076.97168	9750.90012
1075.13086	11137.19797
1073.29004	9643.73703
1071.44824	10022.06809
1069.60547	8214.75168
1067.76269	8359.15793
1065.91894	8689.72043
1064.07519	8121.66867
1062.23047	7522.5842
1060.38574	7347.08664
1058.54102	9025.03879
1056.69434	10936.48215
1054.84863	13242.49191
1053.00098	15537.37766
1051.1543	17483.63645
1049.30566	19116.99191
1047.45801	19261.13059
1045.6084	16647.70871
1043.75977	14379.13645
1041.90918	12350.57395
1040.05859	11371.51242
1038.20801	10610.99387
1036.35644	9611.67453
1034.50488	10048.83176
1032.65234	9837.91086
1030.79981	9159.29074
1028.94629	7528.4631
1027.0918	5523.66428
1025.23731	3529.00559
1023.38281	3100.22727
1021.52734	1727.95065
1019.6709	1028.21115
1017.81445	1287.27548
1015.95801	738.34726
1014.10059	733.43771
1012.24219	928.95188
1010.38379	684.11752
1008.52539	2453.0798
1006.66602	3406.16086
1004.80566	3992.44992
1002.94531	5251.93332
1001.08398	5852.87814
999.22266	3969.77658
997.36035	2126.8093
995.49805	695.41867
993.63477	-216.37839
991.77148	-547.72781
989.90723	-1108.49551
988.04297	-666.07919
986.17773	-848.6416
984.3125	-1232.73068
982.44629	-641.21967
980.5791	-587.65819
978.71191	-544.99075
976.84473	185.38193
974.97656	351.41544
973.10742	809.0206
971.23828	1018.29758
969.36914	1863.72067
967.49902	2335.66086
965.62793	3635.0051
963.75684	3814.15793
961.88477	4910.8425
960.0127	4931.91574
958.13965	4241.33713
956.2666	4227.29074
954.39355	3908.51877
952.51855	3245.61228
950.64355	3597.32907
948.76855	3214.16623
946.89258	2724.6965
945.0166	3453.29978
943.13965	2899.60446
941.2627	3455.95163
939.38477	4596.43234
937.50586	4362.69406
935.62695	4771.46506
933.74707	4954.54221
931.86719	5319.98215
929.9873	5004.3298
928.10645	4589.39914
926.22461	5842.03342
924.34277	4693.78879
922.45996	4165.10812
920.57715	4359.90842
918.69336	3224.70334
916.80957	3193.61325
914.9248	1851.96677
913.03906	2149.04563
911.1543	1050.23434
909.26758	1257.92148
907.38086	878.41989
905.49414	397.78995
903.60645	214.60867
901.71777	130.87485
899.8291	428.63168
897.93945	-245.84523
896.0498	-425.26381
894.15918	-1034.60422
892.26855	25.57257
890.37695	-726.78198
888.48535	115.99579
886.59277	1315.88278
884.7002	2668.728
882.80664	3760.30685
880.91211	5128.6257
879.01758	5992.77463
877.12305	5386.20187
875.22754	5229.40647
873.33105	5107.13449
871.43457	3392.76608
869.53711	2577.5676
867.63965	2610.9697
865.74121	2020.61521
863.84277	1112.63278
861.94336	1632.41635
860.04395	882.76926
858.14355	1587.73434
856.24219	797.48984
854.34082	696.42734
852.43945	341.42905
850.53711	5.09433
848.63379	573.3605
846.73047	229.84677
844.82617	746.17612
842.92188	259.94363
841.0166	-153.4778
839.11133	-556.81471
837.20508	-457.45238
835.29883	-516.5648
833.3916	-560.23332
831.4834	-389.96927
829.5752	-62.02139
827.66699	-347.38174
825.75684	584.3613
823.84766	209.32932
821.9375	-90.88113
820.02637	-339.69642
818.11426	146.83798
816.20313	-90.51263
814.29004	64.87036
812.37695	-43.36301
810.46387	-120.83334
808.5498	-90.69937
806.63477	-375.62361
804.71973	-1418.69974
802.80371	-1456.65518
800.8877	-908.73349
798.9707	-553.44849
797.05371	-1073.76462
795.13574	-1491.18533
793.21777	-1130.87363
791.29883	-975.65146
789.37891	-847.59888
787.45898	-1331.61508
785.53906	-229.5594
783.61719	-53.2551
781.69629	-443.19958
779.77344	-603.26468
777.85156	241.86887
775.92773	-271.25969
774.00391	-0.80804
772.08008	352.50516
770.15527	-72.88205
768.22949	545.86575
766.30371	-279.78368
764.37793	-116.09036
762.4502	-576.39091
760.52344	-558.56917
758.59473	-491.56947
756.66602	-556.4303
754.7373	-735.04843
752.80762	-1002.8024
750.87695	-1139.10062
748.94629	-6.79321
747.01563	-388.01811
745.08301	-430.54162
743.15137	63.38132
741.21777	-132.89029
739.28418	-407.38964
737.35059	-254.224
735.41602	182.03995
733.48047	157.2648
731.54492	-2.97906
729.60938	1222.61411
727.67188	1418.42575
725.73535	984.54233
723.79688	1040.78464
721.8584	1239.49082
719.91992	1938.6135
717.98047	2110.5217
716.04004	2526.80759
714.09961	2740.38254
712.1582	3179.7153
710.2168	2919.64035
708.27441	3678.51608
706.33203	4383.63303
704.38867	5556.33273
702.44434	6157.0842
700.5	6039.97971
698.55566	6416.43283
696.61035	7182.14377
694.66406	7037.74973
692.7168	7118.3049
690.77051	8643.10226
688.82227	10781.11594
686.87402	13092.96164
684.92578	15998.50754
682.97559	20071.87277
681.02637	24186.4548
679.0752	27800.79465
677.125	31610.33371
675.17285	32950.64035
673.2207	31574.62473
671.26855	30960.35129
669.31543	28288.26926
667.36133	27230.18723
665.40723	25553.40012
663.45215	25624.71652
661.49707	24465.13645
659.54102	21830.95676
657.58398	19541.72434
655.62695	17884.32004
653.66895	15910.31516
651.71094	14198.21848
649.75195	14406.42746
647.79297	13507.13449
645.83301	13291.09738
643.87305	14322.69699
641.91211	17762.40988
639.9502	20127.25754
637.98828	23713.6384
636.02539	28760.05832
634.0625	30369.42355
632.09863	33661.93332
630.13379	35498.70285
628.16895	34263.92551
626.20313	33183.01144
624.2373	30571.38645
622.27148	27969.99387
620.30371	25959.65207
618.33594	23703.64035
616.36816	21703.23801
614.39941	19375.20676
612.42969	17737.79074
610.45996	16329.39621
608.48926	13878.74094
606.51855	12196.17941
604.54688	9409.65402
602.57422	9003.89328
600.60156	6919.56564
598.62793	5735.15354
596.6543	4457.89572
594.67969	3701.27829
592.70508	2772.37863
590.72949	1699.72751
588.75293	919.05856
586.77637	650.48618
584.79883	150.21689
582.82129	-310.76585
580.84277	-1287.71603
578.86426	-289.86118
576.88477	-1029.59201
574.9043	218.39932
572.92383	1364.91745
570.94238	4524.30881
568.96094	7112.51682
566.97852	9841.57101
564.99512	10267.43234
563.01172	9346.15793
561.02734	8865.79953
559.04297	9375.78195
557.05762	9010.28
555.07227	7210.12717
553.08594	5493.81955
551.09863	2244.23386
549.11133	-294.94703